# EEG Fpz-Cz,EEG Pz-Oz,EOG horizontal,Resp oro-nasal,EMG submental,Temp rectal,Event marker
1.096468864468864621e-04,9.984126984126980714e-06,1.528058608058607804e-04,-3.890000000000000000e+02,3.149999999999999910e-06,3.730655640874187640e+01,9.109999999999997726e+02
1.045655677655677818e-04,1.260439560439559966e-05,9.258608058608057141e-05,-3.919721920223847746e+02,3.150326122286533281e-06,3.728175699970742585e+01,9.044896053431077689e+02
1.018754578754578954e-04,9.622710622710619130e-06,1.538095238095237819e-04,-3.949121330877125047e+02,3.150653026035968226e-06,3.725647002131488250e+01,8.978431096816660784e+02
1.023736263736263919e-04,7.634920634920630417e-06,3.136263736263734741e-05,-3.978187499161996357e+02,3.150980769260538440e-06,3.723070472379030349e+01,8.910624752409742086e+02
9.510036630036630809e-05,6.641025641025636908e-06,1.186813186813186633e-04,-4.006909826157386192e+02,3.151309416172021875e-06,3.720447069401662787e+01,8.841497504232956999e+02
9.480146520146521562e-05,5.195360195360190572e-06,7.702930402930400827e-05,-4.035277852110690446e+02,3.151639036989948760e-06,3.717777784958651210e+01,8.771070685187511344e+02
8.922197802197803882e-05,4.291819291819288305e-06,1.337362637362636986e-04,-4.063281261655153571e+02,3.151969707740797621e-06,3.715063643259275494e+01,8.699366463510060612e+02
8.683076923076924489e-05,6.460317460317456963e-06,1.186813186813186633e-04,-4.090909888950148456e+02,3.152301510048399941e-06,3.712305700316101564e+01,8.626407828587911126e+02
8.115164835164836608e-05,7.273504273504269680e-06,1.146666666666666575e-04,-4.118153722741653269e+02,3.152634530915809695e-06,3.709505043272931601e+01,8.552218576143535529e+02
8.274578754578755752e-05,1.043589743589743185e-05,1.347399267399267001e-04,-4.145002911340220635e+02,3.152968862498866881e-06,3.706662789707946359e+01,8.476823292799821274e+02
7.985641025641026711e-05,7.905982905982900758e-06,1.221941391941391820e-04,-4.171447767513793110e+02,3.153304601871750653e-06,3.703780086912549052e+01,8.400247340038097263e+02
8.324395604395605399e-05,8.583638583638546330e-07,9.660073260073257721e-05,-4.197478773292771734e+02,3.153641850784755011e-06,3.700858111146443719e+01,8.322516837561446437e+02
7.636923076923077822e-05,1.129426129426125503e-06,1.161721611721611461e-04,-4.223086584684737090e+02,3.153980715414611010e-06,3.697898066869519340e+01,8.243658646076262357e+02
7.407765567765569985e-05,8.809523809523804719e-06,1.236996336996336841e-04,-4.248262036296337101e+02,3.154321306107600730e-06,3.694901185951098199e+01,8.163700349505602389e+02
7.706666666666669226e-05,7.634920634920630417e-06,9.258608058608057141e-05,-4.272996145859809758e+02,3.154663737115798413e-06,3.691868726857157412e+01,8.082670236648290256e+02
7.278241758241760088e-05,1.314652014652014203e-05,1.302234432234431936e-04,-4.297280118661752226e+02,3.155008126326724230e-06,3.688801973816137547e+01,8.000597282298178925e+02
7.437655677655679231e-05,1.278510378510378045e-05,8.154578754578752835e-05,-4.321105351871711946e+02,3.155354594986731269e-06,3.685702235963966444e+01,7.917511127838538414e+02
7.357948717948720337e-05,1.305616605616605248e-05,1.141648351648351432e-04,-4.344463438768269725e+02,3.155703267418452712e-06,3.682570846468954073e+01,7.833442061326829844e+02
7.178608058608059437e-05,1.377899877899877396e-05,1.171758241758241612e-04,-4.367346172860318347e+02,3.156054270732628521e-06,3.679409161637224912e+01,7.748420997085654562e+02
6.969377289377290646e-05,1.811599511599511127e-05,8.455677655677653270e-05,-4.389745551901314684e+02,3.156407734534662302e-06,3.676218559999380631e+01,7.662479454816098041e+02
6.839853479853480749e-05,1.820634920634920252e-05,6.899999999999998311e-05,-4.411653781794268525e+02,3.156763790626237864e-06,3.673000441379073067e+01,7.575649538249986108e+02
7.108864468864470744e-05,1.133943833943833411e-05,1.076410256410256203e-04,-4.433063280385400162e+02,3.157122572702355011e-06,3.669756225944237826e+01,7.487963913358055379e+02
6.800000000000001302e-05,8.719169719169715170e-06,1.201868131868131655e-04,-4.453966681144327140e+02,3.157484216044131868e-06,3.666487353241695502e+01,7.399455786131383093e+02
6.610695970695972912e-05,4.472527472527469098e-06,1.066373626373626188e-04,-4.474356836728788949e+02,3.157848857207749395e-06,3.663195281215864441e+01,7.310158879953759197e+02
4.817289377289378819e-05,1.490842490842487087e-06,5.846153846153844078e-05,-4.494226822431941173e+02,3.158216633709887919e-06,3.659881485212379459e+01,7.220107412583064388e+02
1.858168498168499719e-05,-5.873015873015909623e-07,9.158241758241755640e-05,-4.513569939510306881e+02,3.158587683710032173e-06,3.656547456967342669e+01,7.129336072759986109e+02
-2.485860805860804398e-05,-6.731379731379734927e-06,1.982051282051280701e-05,-4.532379718390548078e+02,3.158962145690032384e-06,3.653194703583032776e+01,7.037879996462819463e+02
-5.474871794871793762e-05,-6.460317460317463739e-06,4.441025641025639337e-05,-4.550649921753255853e+02,3.159340158131283923e-06,3.649824746490845939e+01,6.945774742827278487e+02
-7.666813186813185713e-05,-5.466422466422470230e-06,1.272124542124541892e-04,-4.568374547492076090e+02,3.159721859189916004e-06,3.646439120402294520e+01,6.853056269750592264e+02
-8.513699633699632434e-05,-8.628815628815630703e-06,1.442747252747252410e-04,-4.585547831546459747e+02,3.160107386370387112e-06,3.643039372248866670e+01,6.759760909199432035e+02
-8.712967032967031025e-05,-6.731379731379734927e-06,2.175421245421245095e-04,-4.602164250606508631e+02,3.160496876197855205e-06,3.639627060111597245e+01,6.665925342241417866e+02
-8.653186813186812532e-05,-9.984126984126987490e-06,2.556813186813186459e-04,-4.618218524688336402e+02,3.160890463889734329e-06,3.636203752141169332e+01,6.571586573820227386e+02
-8.015531135531133247e-05,-2.633821733821733985e-05,2.320952380952380576e-04,-4.633705619578536243e+02,3.161288283026818835e-06,3.632771025469406112e+01,6.476781907294490566e+02
-7.078974358974357431e-05,-8.448107448107451605e-06,2.822783882783882385e-04,-4.648620749146315916e+02,3.161690465224382604e-06,3.629330465113005744e+01,6.381548918760929610e+02
-5.933186813186811469e-05,-1.034554334554334907e-05,2.802710622710622356e-04,-4.662959377522035425e+02,3.162097139803641220e-06,3.625883662870378998e+01,6.285925431182306511e+02
-4.269304029304027951e-05,-6.641025641025644531e-06,2.867948717948717451e-04,-4.676717221140859806e+02,3.162508433463970973e-06,3.622432216212463629e+01,6.189949488340913604e+02
-1.828278388278387084e-05,-5.285714285714288591e-06,2.852893772893772971e-04,-4.689890250650358325e+02,3.162924469956306935e-06,3.618977727168383751e+01,6.093659328638558463e+02
3.935531135531149610e-06,-1.657997557997558386e-05,2.903076923076922502e-04,-4.702474692680970634e+02,3.163345369758081779e-06,3.615521801206843122e+01,5.997093358764007007e+02
2.575531135531136881e-05,-7.996336996336998778e-06,2.877985347985347465e-04,-4.714467031478262129e+02,3.163771249750140310e-06,3.612066046114118478e+01,5.900290127249041916e+02
5.604395604395606369e-05,-7.454212454212457249e-06,2.913113553113552516e-04,-4.725864010396070398e+02,3.164202222895992231e-06,3.608612070869568100e+01,5.803288297934363982e+02
6.929523809523811199e-05,-4.382173382173386325e-06,2.898058608058607494e-04,-4.736662633249604255e+02,3.164638397923833003e-06,3.605161484519507553e+01,5.706126623366586728e+02
9.051721611721613779e-05,-1.106837606837607055e-05,2.908095238095238051e-04,-4.746860165527733102e+02,3.165079879011693661e-06,3.601715895050386962e+01,5.608843918147720160e+02
9.998241758241759795e-05,-1.296581196581196971e-05,2.908095238095238051e-04,-4.756454135463712305e+02,3.165526765476140104e-06,3.598276908262121765e+01,5.511479032258473580e+02
1.033699633699633848e-04,-5.647130647130651022e-06,2.888021978021977480e-04,-4.765442334963707367e+02,3.165979151464884420e-06,3.594846126642502782e+01,5.414070824376796054e+02
1.058608058608058808e-04,-8.177045177045179570e-06,2.883003663003663015e-04,-4.773822820392523454e+02,3.166437125653722847e-06,3.591425148243559562e+01,5.316658135213041305e+02
1.079531135531135687e-04,-1.359829059829060164e-05,2.893040293040293029e-04,-4.781593913216080978e+02,3.166900770948156137e-06,3.588015565560769460e+01,5.219279760883117660e+02
1.125362637362637525e-04,-2.859706959706959721e-05,2.883003663003663015e-04,-4.788754200500171123e+02,3.167370164190090001e-06,3.584618964416014819e+01,5.121974426340975697e+02
1.095472527472527601e-04,-1.603785103785103979e-05,2.862930402930402986e-04,-4.795302535265198003e+02,3.167845375869981120e-06,3.581236922845167925e+01,5.024780758891686219e+02
1.094476190476190717e-04,-1.522466422466422707e-05,2.862930402930402986e-04,-4.801238036696634595e+02,3.168326469844803131e-06,3.577871009991179818e+01,4.927737261806317974e+02
1.045655677655677818e-04,1.852258852258848460e-06,2.842857142857142414e-04,-4.806560090211000329e+02,3.168813503062191289e-06,3.574522785003567549e+01,4.830882288059731877e+02
1.046652014652014838e-04,2.032967032967029252e-06,2.792673992673992342e-04,-4.811268347377290979e+02,3.169306525291141889e-06,3.571193795945168148e+01,4.734254014212258426e+02
1.057611721611721788e-04,8.990231990231985511e-06,2.767582417582417306e-04,-4.815362725693840957e+02,3.169805578859592573e-06,3.567885578707025473e+01,4.637890414456153962e+02
1.048644688644688878e-04,6.912087912087907249e-06,2.682271062271062182e-04,-4.818843408220655533e+02,3.170310698399263388e-06,3.564599655932278921e+01,4.541829234847532462e+02
1.019750915750915974e-04,7.092796092796088888e-06,2.677252747252746633e-04,-4.821710843067415908e+02,3.170821910598068213e-06,3.561337535949911626e+01,4.446107967744329130e+02
9.928498168498169746e-05,9.893772893772889471e-06,2.617032967032967088e-04,-4.823965742737333926e+02,3.171339233960459491e-06,3.558100711719195175e+01,4.350763826470662252e+02
9.709304029304030755e-05,-7.273504273504276456e-06,2.556813186813186459e-04,-4.825609083327200892e+02,3.171862678576006970e-06,3.554890659785687035e+01,4.255833720227780077e+02
9.280879120879122971e-05,-6.369963369963373343e-06,2.376153846153845656e-04,-4.826642103584023857e+02,3.172392245896554343e-06,3.551708839249599947e+01,4.161354229271508984e+02
8.683076923076924489e-05,-1.761904761904765475e-06,2.351062271062270891e-04,-4.827066303818716051e+02,3.172927928522237553e-06,3.548556690747363973e+01,4.067361580375940662e+02
8.473846153846155698e-05,2.258852258852221519e-07,2.220586080586080160e-04,-4.826883444677397392e+02,3.173469709996695097e-06,3.545435635447200440e+01,3.973891622602822054e+02
7.527326007326008326e-05,-9.622710622710625906e-06,2.080073260073259686e-04,-4.826095545770976969e+02,3.174017564611738835e-06,3.542347074059504308e+01,3.880979803395839554e+02
6.999267399267401248e-05,-1.142979242979243383e-05,1.904432234432234161e-04,-4.824704884163688803e+02,3.174571457221793217e-06,3.539292385862805190e+01,3.788661145018692764e+02
6.371575091575092163e-05,-3.930402930402934345e-06,1.834175824175823788e-04,-4.822713992721459135e+02,3.175131343068353632e-06,3.536272927746113481e+01,3.696970221355594504e+02
6.002930402930404906e-05,4.833943833943829835e-06,1.919487179487179183e-04,-4.820125658320904449e+02,3.175697167614752302e-06,3.533290033268380625e+01,3.605941135092442664e+02
5.564542124542125567e-05,5.195360195360190572e-06,1.668571428571428278e-04,-4.816942919920022064e+02,3.176268866391468468e-06,3.530345011735845162e+01,3.515607495296695788e+02
5.494798534798536196e-05,1.039072039072035319e-06,1.768937728937728694e-04,-4.813169066491543049e+02,3.176846364852245020e-06,3.527439147297975097e+01,3.426002395413480599e+02
3.970402930402931421e-05,2.936507936507932789e-06,1.472857142857142724e-04,-4.808807634820141743e+02,3.177429578241225026e-06,3.524573698062749116e+01,3.337158391695220985e+02
3.721318681318683182e-05,5.376068376068372211e-06,1.748864468864468665e-04,-4.803862407164664887e+02,3.178018411471355073e-06,3.521749895231956629e+01,3.249107482081668081e+02
4.229450549450551215e-05,-3.162393162393199330e-07,1.738827838827838380e-04,-4.798337408786719607e+02,3.178612759014245567e-06,3.518968942257207999e+01,3.161881085546771146e+02
4.239413919413921415e-05,5.647130647130642552e-06,1.879340659340659125e-04,-4.792236905346929916e+02,3.179212504801702314e-06,3.516232014017334251e+01,3.075510021928489550e+02
4.428717948717950483e-05,9.893772893772889471e-06,1.939560439560439212e-04,-4.785565400170393673e+02,3.179817522139121627e-06,3.513540256017810037e+01,2.990024492257171573e+02
4.080000000000001594e-05,-8.628815628815630703e-06,1.783992673992673716e-04,-4.778327631382784375e+02,3.180427673630903578e-06,3.510894783612844350e+01,2.905454059597743139e+02
4.109890109890111518e-05,-4.517704517704888393e-08,1.603333333333333184e-04,-4.770528568918771839e+02,3.181042811118082416e-06,3.508296681250746474e+01,2.821827630420447122e+02
4.657875457875459676e-05,-9.487179487179524405e-07,1.648498168498168520e-04,-4.762173411404403396e+02,3.181662775628291061e-06,3.505747001743165470e+01,2.739173436514454352e+02
5.086300366300368136e-05,-1.490842490842494287e-06,1.322307692307692236e-04,-4.753267582915225944e+02,3.182287397338226109e-06,3.503246765558779430e+01,2.657519017458191115e+02
4.707692307692309323e-05,-3.388278388278391545e-06,1.467838827838827717e-04,-4.743816729611974097e+02,3.182916495548727703e-06,3.500796960141978076e+01,2.576891203659746452e+02
4.618021978021979551e-05,-4.833943833943836611e-06,1.096483516483516367e-04,-4.733826716255748579e+02,3.183549878672593688e-06,3.498398539257094342e+01,2.497316099980173476e+02
4.368937728937729957e-05,-1.761904761904765475e-06,1.257069597069596870e-04,-4.723303622604653924e+02,3.184187344235226324e-06,3.496052422358678768e+01,2.418819069952108407e+02
4.109890109890111518e-05,6.098901098901094532e-06,9.358974358974357286e-05,-4.712253739693946955e+02,3.184828678888192012e-06,3.493759493988307696e+01,2.341424720605502330e+02
4.159706959706961166e-05,7.183150183150178437e-06,9.459340659340657431e-05,-4.700683566001856661e+02,3.185473658435791447e-06,3.491520603198420503e+01,2.265156887911785191e+02
4.139780219780221442e-05,1.278510378510378045e-05,8.857142857142855205e-05,-4.688599803503233829e+02,3.186122047874674080e-06,3.489336563003595870e+01,2.190038622857267683e+02
3.402490842490843540e-05,4.743589743589739439e-06,8.104395604395602762e-05,-4.676009353613331996e+02,3.186773601446558715e-06,3.487208149859722539e+01,2.116092178155980434e+02
3.163369963369964824e-05,-4.653235653235656666e-06,6.498534798534796376e-05,-4.662919313024029293e+02,3.187428062704096256e-06,3.485136103171446820e+01,2.043338995611657367e+02
3.541978021978023637e-05,-2.032967032967036875e-06,6.849816849816848239e-05,-4.649336969434916682e+02,3.188085164589877545e-06,3.483121124828289794e+01,1.971799694137993129e+02
2.655238095238096792e-05,-4.924297924297927854e-06,5.444688644688642820e-05,-4.635269797181725835e+02,3.188744629528621048e-06,3.481163878769771713e+01,1.901494058445690314e+02
2.465934065934067385e-05,-8.177045177045179570e-06,3.638095238095236144e-05,-4.620725452764587544e+02,3.189406169532496311e-06,3.479264990579886074e+01,1.832441028404330439e+02
2.426080586080587599e-05,-4.517704517704888393e-08,4.491208791208789409e-05,-4.605711770278795711e+02,3.190069486319594232e-06,3.477425047111233880e+01,1.764658689086407719e+02
2.535677655677657095e-05,-4.382173382173386325e-06,3.387179487179485781e-05,-4.590236756750652489e+02,3.190734271445484822e-06,3.475644596139072462e+01,1.698164261500391490e+02
2.266666666666668117e-05,-2.123321123321126848e-06,3.035897435897434257e-05,-4.574308587381194116e+02,3.191400206447827334e-06,3.473924146045573735e+01,1.632974094018969424e+02
1.758534798534800084e-05,-2.258852258852295635e-07,1.480219780219778790e-05,-4.557935600700502619e+02,3.192066963003955237e-06,3.472264165534494396e+01,1.569103654508161583e+02
2.127179487179488697e-05,1.355311355311318353e-07,2.758241758241744664e-06,-4.541126293635508091e+02,3.192734203101371661e-06,3.470665083376467663e+01,1.506567523162253792e+02
1.917948717948719567e-05,-3.659340659340662733e-06,-8.783882783882797002e-06,-4.523889316494120294e+02,3.193401579221055381e-06,3.469127288185115532e+01,1.445379386049001482e+02
1.379926739926741441e-05,2.123321123321119648e-06,-6.776556776556789866e-06,-4.506233467868686375e+02,3.194068734533467624e-06,3.467651128224114387e+01,1.385552029368880369e+02
1.479560439560440906e-05,4.382173382173377854e-06,-2.735164835164836280e-05,-4.488167689461715781e+02,3.194735303107151719e-06,3.466236911245354690e+01,1.327097334431577735e+02
7.721611721611736047e-06,-6.776556776556813583e-07,-1.179487179487180813e-05,-4.469701060836985675e+02,3.195400910129780752e-06,3.464884904358297746e+01,1.270026273352289081e+02
8.120146520146533906e-06,-1.400488400488404103e-06,-4.391208791208792400e-05,-4.450842794099086746e+02,3.196065172141508779e-06,3.463595333930607723e+01,1.214348905469770443e+02
7.422710622710636805e-06,-3.117216117216120780e-06,-1.932234432234433425e-05,-4.431602228504563641e+02,3.196727697280470630e-06,3.462368385520103686e+01,1.160074374487494282e+02
5.131135531135545728e-06,-5.873015873015909623e-07,-2.735164835164836280e-05,-4.411988825007858281e+02,3.197388085540245192e-06,3.461204203838067173e+01,1.107210906338609391e+02
2.540659340659354562e-06,2.755799755799751997e-06,-2.634798534798536135e-05,-4.392012160745283040e+02,3.198045929039103887e-06,3.460102892743899616e+01,1.055765807774803733e+02
9.515018315018328106e-06,1.039072039072035319e-06,-8.305494505494506188e-05,-4.371681923460286612e+02,3.198700812300839372e-06,3.459064515271098372e+01,1.005745465678552080e+02
1.145787545787559938e-06,-1.400488400488404103e-06,-6.699633699633699801e-05,-4.351007905873375421e+02,3.199352312546955049e-06,3.458089093684518645e+01,9.571553470976107292e+01
6.824908424908439170e-06,-5.285714285714288591e-06,-1.011208791208791286e-04,-4.330000000000000000e+02,3.200000000000000279e-06,3.457176609568811898e+01,9.100000000000004263e+01
4.035164835164849075e-06,-7.002442002442005268e-06,-1.201904761904761969e-04,-4.308668191419830578e+02,3.200643438197799269e-06,3.456327003947969700e+01,8.642830547471056946e+01
1.843223443223457250e-06,1.852258852258848460e-06,-1.633479853479853541e-04,-4.287022553500832487e+02,3.201282184318328869e-06,3.455540177435814542e+01,8.200072262819203672e+01
-2.142124542124528328e-06,1.355311355311318353e-07,-1.799084249084249322e-04,-4.265073241581617367e+02,3.201915789514975483e-06,3.454815990417306892e+01,7.771743170288297620e+01
-1.643956043956029945e-06,-2.258852258852295635e-07,-1.954652014652014818e-04,-4.242830487115542155e+02,3.202543799261903010e-06,3.454154263260468838e+01,7.357852205007584701e+01
-2.640293040293026498e-06,-4.562881562881566270e-06,-2.070073260073259985e-04,-4.220304591780083001e+02,3.203165753709228159e-06,3.453554776558723916e+01,6.958399256088952711e+01
-1.599120879120877553e-05,-5.376068376068379834e-06,-1.929560439560439511e-04,-4.197505921555022610e+02,3.203781188047722346e-06,3.453017271403431465e+01,6.573375216695697532e+01
-2.216849816849815759e-05,-8.086691086691090021e-06,-2.055018315018314963e-04,-4.174444900773024756e+02,3.204389632882705162e-06,3.452541449686341934e+01,6.202762041023361661e+01
-2.555604395604394108e-05,-7.996336996336998778e-06,-2.220622710622710474e-04,-4.151132006146174263e+02,3.204990614616835926e-06,3.452126974431703843e+01,5.846532808127052050e+01
-2.734945054945053653e-05,-4.382173382173386325e-06,-2.200549450549450445e-04,-4.127577760772094848e+02,3.205583655841435289e-06,3.451773470157711188e+01,5.504651792523567622e+01
-2.954139194139192645e-05,1.956166056166055422e-05,-2.265787545787545810e-04,-4.103792728123265761e+02,3.206168275736024738e-06,3.451480523266973677e+01,5.177074541491320048e+01
-3.033846153846152556e-05,1.129426129426125503e-06,-2.471538461538461649e-04,-4.079787506023183710e+02,3.206743990475715145e-06,3.451247682465630362e+01,4.863747958985630504e+01
-3.342710622710621659e-05,9.984126984126980714e-06,-2.341062271062271190e-04,-4.055572720613006936e+02,3.207310313646068678e-06,3.451074459210757084e+01,4.564610396080401955e+01
-4.129816849816848531e-05,1.350793650793650362e-05,-2.310952380952380875e-04,-4.031159020312354073e+02,3.207866756665090617e-06,3.450960328185653481e+01,4.279591747843210214e+01
-2.984029304029302569e-05,6.731379731379727304e-06,-2.130293040293040072e-04,-4.006557069777923630e+02,3.208412829211938986e-06,3.450904727802583238e+01,4.008613556543900813e+01
-3.960439560439559187e-05,7.002442002441998492e-06,-2.029926739926739927e-04,-3.981777543863616984e+02,3.208948039661974226e-06,3.450907060732529175e+01,3.751589121092879253e+01
-3.691428571428570548e-05,2.213675213675209620e-06,-2.341062271062271190e-04,-3.956831121585811388e+02,3.209471895527749116e-06,3.450966694461495621e+01,3.508423612598834040e+01
-3.591794871794870575e-05,4.111111111111106666e-06,-2.516703296703296715e-04,-3.931728480097513057e+02,3.209983903905530232e-06,3.451082961872855037e+01,3.279014195931858211e+01
-3.731282051282049995e-05,9.893772893772889471e-06,-2.526739926739926729e-04,-3.906480288675012957e+02,3.210483571926924059e-06,3.451255161855242903e+01,3.063250157171417953e+01
-4.349010989010987523e-05,-1.350793650793651039e-05,-2.471538461538461649e-04,-3.881097202720764585e+02,3.210970407215203285e-06,3.451482559935465844e+01,2.861013036815301902e+01
-4.169670329670327978e-05,-1.278510378510378892e-05,-2.501648351648351693e-04,-3.855589857786120547e+02,3.211443918345885627e-06,3.451764388935858108e+01,2.672176768619776510e+01
-4.827252747252746309e-05,-4.111111111111115137e-06,-2.486593406593406671e-04,-3.829968863617602324e+02,3.211903615311139123e-06,3.452099849655532182e+01,2.496607823937176818e+01
-5.086300366300364748e-05,-1.197191697191697451e-05,-2.376190476190475969e-04,-3.804244798230339484e+02,3.212349009987568360e-06,3.452488111574911045e+01,2.334165361412055617e+01
-4.627985347985347041e-05,-1.368864468864469119e-05,-2.386227106227106255e-04,-3.778428202012331099e+02,3.212779616606928895e-06,3.452928313582959419e+01,2.184701381893603411e+01
-4.568205128205126515e-05,-1.106837606837607055e-05,-2.290879120879120846e-04,-3.752529571863120168e+02,3.213194952229317129e-06,3.453419564726448954e+01,2.048060888416607028e+01
-4.667838827838826488e-05,-1.414041514041514232e-05,-2.270805860805860817e-04,-3.726559355370518460e+02,3.213594537218386705e-06,3.453960944980644854e+01,1.924082051099960822e+01
-4.906959706959705881e-05,-1.124908424908425134e-05,-2.376190476190475969e-04,-3.700527945028928798e+02,3.213977895718109475e-06,3.454551506040719744e+01,1.812596376807405463e+01
-5.086300366300364748e-05,-2.173015873015873389e-05,-1.979743589743589583e-04,-3.674445672502837397e+02,3.214344556130630829e-06,3.455190272133243212e+01,1.713428883411533477e+01
-4.946813186813185328e-05,-2.846153846153849592e-06,-1.904468864468864475e-04,-3.648322802939011353e+02,3.214694051594738281e-06,3.455876240847023695e+01,1.626398278498098549e+01
-5.265641025641024293e-05,-4.743589743589747062e-06,-2.080109890109889999e-04,-3.622169529330909654e+02,3.215025920464476161e-06,3.456608383982603527e+01,1.551317142344297118e+01
-5.544615384615383133e-05,-7.454212454212457249e-06,-1.829194139194139095e-04,-3.595995966938762649e+02,3.215339706787427011e-06,3.457385648419682411e+01,1.487992115001551063e+01
-4.946813186813185328e-05,-4.201465201465204686e-06,-1.708754578754578921e-04,-3.569812147768796535e+02,3.215634960782167954e-06,3.458206957001713988e+01,1.436224087309596698e+01
-4.598095238095236439e-05,-1.142979242979243383e-05,-1.919523809523809496e-04,-3.543628015114966274e+02,3.215911239314458226e-06,3.459071209436938688e+01,1.395808395665883950e+01
-4.229450549450548504e-05,-7.183150183150186907e-06,-1.789047619047619308e-04,-3.517453418166633696e+02,3.216168106371631832e-06,3.459977283215067700e+01,1.366535020371518705e+01
-4.239413919413918705e-05,-4.382173382173386325e-06,-1.553186813186813425e-04,-3.491298106685453604e+02,3.216405133534743454e-06,3.460924034538849270e+01,1.348188787371688413e+01
-3.940512820512818786e-05,-8.357753357753362056e-06,-1.944615384615384804e-04,-3.465171725754815384e+02,3.216621900447972509e-06,3.461910299269719360e+01,1.340549573206785006e+01
-3.990329670329668434e-05,-8.899877899877902738e-06,-1.573260073260073183e-04,-3.439083810605054055e+02,3.216817995284805943e-06,3.462934893886733789e+01,1.343392512986979703e+01
-3.392527472527471306e-05,-9.442002442002445114e-06,-1.513040293040293096e-04,-3.413043781517661728e+02,3.216993015210523303e-06,3.463996616457976785e+01,1.356488211201697780e+01
-3.801025641025639366e-05,-7.544566544566547645e-06,-1.392600732600732651e-04,-3.387060938811618485e+02,3.217146566840491539e-06,3.465094247623611778e+01,1.379602955172622281e+01
-4.398827838827837171e-05,-8.583638583638620445e-07,-1.603369963369963497e-04,-3.361144457915001453e+02,3.217278266693799423e-06,3.466226551589748794e+01,1.412498930957618448e+01
-4.478534798534797420e-05,-4.201465201465204686e-06,-1.372527472527472622e-04,-3.335303384524858075e+02,3.217387741641761075e-06,3.467392277132292833e+01,1.454934441510409293e+01
-4.528351648351647068e-05,1.490842490842487087e-06,-1.156739926739926768e-04,-3.309546629858405709e+02,3.217474629350793912e-06,3.468590158609919882e+01,1.506664126900490253e+01
-4.737582417582415859e-05,8.357753357753353585e-06,-9.961538461538462647e-05,-3.283882965998448640e+02,3.217538578719227191e-06,3.469818916985330048e+01,1.567439186394804373e+01
-5.295531135531134217e-05,-1.039072039072042731e-06,-1.277179487179487213e-04,-3.258321021335943328e+02,3.217579250307551121e-06,3.471077260853923718e+01,1.637007602202938727e+01
-5.594432234432233458e-05,1.423076923076922509e-05,-1.116593406593406710e-04,-3.232869276112488706e+02,3.217596316761654240e-06,3.472363887479023248e+01,1.715114364685901904e+01
-5.544615384615383133e-05,-2.304029304029307640e-06,-1.538131868131868132e-04,-3.207536058065533098e+02,3.217589463228586994e-06,3.473677483832789648e+01,1.801501698827549447e+01
-5.793699633699632727e-05,-1.161050061050061292e-05,-8.054578754578755825e-05,-3.182329538178985331e+02,3.217558387764406835e-06,3.475016727641948222e+01,1.895909291767786797e+01
-4.339047619047617323e-05,-6.279609279609282947e-06,-1.437765567765567716e-04,-3.157257726541863008e+02,3.217502801733638107e-06,3.476380288437448485e+01,1.998074521195088948e+01
-5.285567765567764016e-05,4.517704517704145916e-08,-1.091501831501831673e-04,-3.132328468317523402e+02,3.217422430199924069e-06,3.477766828607197880e+01,2.107732684396944478e+01
-4.189597069597067702e-05,6.098901098901094532e-06,-4.993406593406594625e-05,-3.107549439825996842e+02,3.217317012307419147e-06,3.479175004450968345e+01,2.224617227765296690e+01
-3.153406593406591913e-05,8.583638583638546330e-07,2.534065934065932854e-05,-3.082928144741808865e+02,3.217186301652505955e-06,3.480603467236610271e+01,2.348459976555391293e+01
-2.455970695970694474e-05,-1.942612942612946479e-06,-2.684981684981685868e-05,-3.058471910409673455e+02,3.217030066645407213e-06,3.482050864256694211e+01,2.478991364695830057e+01
-3.043809523809522417e-05,5.918192918192913740e-06,2.835164835164833628e-05,-3.034187884280287335e+02,3.216848090861273281e-06,3.483515839884699972e+01,2.615940664448449127e+01
-2.645274725274723881e-05,4.472527472527469098e-06,1.831501831501829806e-05,-3.010083030468456400e+02,3.216640173380361179e-06,3.484997036629874145e+01,2.759036215716941953e+01
-2.386227106227104764e-05,1.694139194139193867e-05,-2.527472527472660394e-07,-2.986164126435644448e+02,3.216406129116876068e-06,3.486493096189894203e+01,2.908005654804614082e+01
-2.844542124542123149e-05,-1.310134310134313919e-06,4.390842490842488587e-05,-2.962437759798988850e+02,3.216145789136113940e-06,3.488002660500451668e+01,3.062576142421733394e+01
-2.495824175824174260e-05,9.622710622710619130e-06,4.290476190476189119e-05,-2.938910325268723227e+02,3.215859000959519688e-06,3.489524372780903150e+01,3.222474590744640466e+01
-2.665201465201463943e-05,1.215262515262514852e-05,3.788644688644687717e-05,-2.915588021715908553e+02,3.215545628857272610e-06,3.491056878575121658e+01,3.387427889330157171e+01
-2.316483516483515393e-05,3.207570207570203553e-06,1.931868131868130629e-05,-2.892476849372208108e+02,3.215205554128074950e-06,3.492598826786689159e+01,3.557163129689975278e+01
-2.406153846153844827e-05,7.815628815628811209e-06,2.758241758241744664e-06,-2.869582607163454782e+02,3.214838675365765679e-06,3.494148870707584820e+01,3.731407828331730769e+01
-2.914285714285713198e-05,9.080586080586076754e-06,-6.776556776556789866e-06,-2.846910890178583600e+02,3.214444908712434269e-06,3.495705669039521268e+01,3.909890148075017891e+01
-2.993992673992672770e-05,1.585714285714285053e-05,-1.631135531135532313e-05,-2.824467087275472750e+02,3.214024188097712161e-06,3.497267886907106771e+01,4.092339117452858943e+01
-4.936849816849815128e-05,2.841636141636141134e-05,-5.896703296703297286e-05,-2.802256378825127285e+02,3.213576465463918352e-06,3.498834196861983514e+01,4.278484848011226660e+01
-7.776410256410255209e-05,-7.905982905982909229e-06,-1.882051282051283014e-05,-2.780283734595531655e+02,3.213101710976766897e-06,3.500403279877143348e+01,4.468058749321662049e+01
-1.088498168498168461e-04,3.040415140415139836e-05,-6.649450549450549729e-05,-2.758553911776432415e+02,3.212599913221342795e-06,3.501973826330604567e+01,4.660793741524273770e+01
-1.298725274725274679e-04,-1.423076923076923356e-05,-2.383882783882785094e-05,-2.737071453146212434e+02,3.212071079383058725e-06,3.503544536977658197e+01,4.856424465221531506e+01
-1.522901098901098635e-04,1.079731379731379174e-05,-4.039926739926741215e-05,-2.715840685381901949e+02,3.211515235413355017e-06,3.505114123910884416e+01,5.054687488545632590e+01
-1.624527472527472513e-04,-1.667032967032967510e-05,-6.498901098901100867e-05,-2.694865717513313825e+02,3.210932426179867161e-06,3.506681311507178833e+01,5.255321511225545805e+01
-1.660395604395604151e-04,-1.910989010989011156e-05,-1.221978021978021862e-04,-2.674150439522171041e+02,3.210322715600832569e-06,3.508244837361021240e+01,5.458067565483095507e+01
-1.663384615384615346e-04,-2.543467643467643420e-05,-1.643516483516483555e-04,-2.653698521086973869e+02,3.209686186763524418e-06,3.509803453203227974e+01,5.662669213590087480e+01
-1.619545787545787548e-04,-2.136874236874236892e-05,-2.331025641025641175e-04,-2.633513410474348007e+02,3.209022942026487253e-06,3.511355925804476641e+01,5.868872741922747593e+01
-1.606593406593406423e-04,-6.641025641025644531e-06,-2.792710622710623198e-04,-2.613598333577377844e+02,3.208333103105388438e-06,3.512901037862854281e+01,6.076427351352936768e+01
-1.546813186813186846e-04,-1.043589743589743862e-05,-2.883040293040292786e-04,-2.593956293101467168e+02,3.207616811142315615e-06,3.514437588874736917e+01,6.285085343819083903e+01
-1.474080586080586143e-04,-1.757387057387057737e-05,-3.093809523809524175e-04,-2.574590067898082566e+02,3.206874226758335521e-06,3.515964395988318358e+01,6.494602304924515579e+01
-1.367472527472527301e-04,-9.893772893772897941e-06,-3.008498168498168509e-04,-2.555502212446664885e+02,3.206105530089180756e-06,3.517480294839096899e+01,6.704737282413434230e+01
-1.278798534798534820e-04,-8.899877899877902738e-06,-3.028571428571428538e-04,-2.536695056484904853e+02,3.205310920803929401e-06,3.518984140366674040e+01,6.915252960380830416e+01
-1.156249084249084063e-04,1.310134310134306295e-06,-2.988424908424908480e-04,-2.518170704787452223e+02,3.204490618106553822e-06,3.520474807612216495e+01,7.125915829074817509e+01
-1.017758241758241663e-04,2.258852258852221519e-07,-2.958315018315018437e-04,-2.499931037093051600e+02,3.203644860720236575e-06,3.521951192495977523e+01,7.336496350156116364e+01
-9.011868131868130266e-05,-4.743589743589747062e-06,-2.918168498168497837e-04,-2.481977708179990145e+02,3.202773906854379330e-06,3.523412212574243796e+01,7.546769117282423167e+01
-7.876043956043954504e-05,-1.206227106227106575e-05,-2.878021978021978321e-04,-2.464312148089626362e+02,3.201878034154211179e-06,3.524856807775155687e+01,7.756513011891208009e+01
-6.481172161172160304e-05,3.659340659340655533e-06,-2.822820512820512699e-04,-2.446935562497704097e+02,3.200957539632965868e-06,3.526283941112809828e+01,7.965511354058126869e+01
-5.325421245421244141e-05,1.405006105006104599e-05,-2.792710622710623198e-04,-2.429848933233006392e+02,3.200012739586575830e-06,3.527692599379114569e+01,8.173552048314365948e+01
-4.070036630036628683e-05,-7.680097680097716485e-07,-2.742527472527472583e-04,-2.413053018942860888e+02,3.199043969490868228e-06,3.529081793812859047e+01,8.380427724309265614e+01
-2.206886446886445558e-05,5.873015873015835508e-07,-2.702380952380952525e-04,-2.396548355904850212e+02,3.198051583881252812e-06,3.530450560745509136e+01,8.585935872212044728e+01
-8.020512820512806489e-06,3.659340659340655533e-06,-2.657216117216117460e-04,-2.380335258984027291e+02,3.197035956214916440e-06,3.531797962223229348e+01,8.789878972749190211e+01
-1.494505494505354328e-07,6.098901098901094532e-06,-2.607032967032966845e-04,-2.364413822734805137e+02,3.195997478715553464e-06,3.533123086604673091e+01,8.992064621781014466e+01
2.640293040293054451e-06,-6.369963369963373343e-06,-2.516703296703296715e-04,-2.348783922646613576e+02,3.194936562200672656e-06,3.534425049134118524e+01,9.192305649325041372e+01
-3.487179487179346800e-07,-1.540537240537240786e-05,-2.471538461538461649e-04,-2.333445216532297479e+02,3.193853635891544190e-06,3.535702992489495244e+01,9.390420232940100220e+01
3.935531135531149610e-06,-1.581196581196584895e-06,-2.381208791208791248e-04,-2.318397146058149190e+02,3.192749147205869268e-06,3.536956087304951524e+01,9.586232005389648236e+01
-4.732600732600719070e-06,-1.088766788766789145e-05,-2.346080586080586197e-04,-2.303638938414357256e+02,3.191623561533257098e-06,3.538183532667552100e+01,9.779570156508994216e+01
-8.618315018315004971e-06,-9.622710622710625906e-06,-2.270805860805860817e-04,-2.289169608124562103e+02,3.190477361993626956e-06,3.539384556587779684e+01,9.970269529206390757e+01
-9.614652014652001313e-06,-1.703174603174603330e-05,-2.225641025641025481e-04,-2.274987958993120571e+02,3.189311049178668745e-06,3.540558416443511192e+01,1.015817070953327459e+02
-5.928205128205114341e-06,-1.242368742368742734e-05,-2.160402930402930387e-04,-2.261092586188572113e+02,3.188125140876486136e-06,3.541704399397149672e+01,1.034312011076548004e+02
-1.609084249084247414e-05,-4.562881562881566270e-06,-2.019890109890109912e-04,-2.247481878461706799e+02,3.186920171779619227e-06,3.542821822785668928e+01,1.052497005144153945e+02
-1.509450549450548119e-05,-5.105006105006107799e-06,-1.964688644688644562e-04,-2.234154020496563930e+02,3.185696693176571237e-06,3.543910034483278793e+01,1.070357882731175039e+02
-1.110915750915749583e-05,-1.052625152625152987e-05,-1.904468864468864475e-04,-2.221106995392557337e+02,3.184455272627092078e-06,3.544968413236510685e+01,1.087881077715585718e+02
-1.011282051282049948e-05,-9.080586080586083530e-06,-1.638498168498168548e-04,-2.208338587275869997e+02,3.183196493621380147e-06,3.545996368971502477e+01,1.105053634243372755e+02
-3.437362637362623064e-06,2.394383394383390836e-06,-1.723809523809523671e-04,-2.195846384038159158e+02,3.181920955223453509e-06,3.546993343073316396e+01,1.121863212073956788e+02
3.536996336996350904e-06,-9.170940170940173079e-06,-1.317326007326007542e-04,-2.183627780200498592e+02,3.180629271698923806e-06,3.547958808637113748e+01,1.138298091303532260e+02
-1.838241758241756946e-05,-3.478632478632481941e-06,-1.111575091575091567e-04,-2.171679979900449382e+02,3.179322072127428287e-06,3.548892270691088413e+01,1.154347176464536489e+02
-8.817582417582403901e-06,5.918192918192913740e-06,-1.332380952380952293e-04,-2.160000000000002274e+02,3.177999999999999473e-06,3.549793266391021263e+01,1.170000000000002274e+02
-7.721611721611707247e-06,1.400488400488396691e-06,-1.658571428571428577e-04,-2.148584673312099085e+02,3.176663712801647318e-06,3.550661365186394391e+01,1.185246725112215245e+02
-4.483516483516343035e-07,1.043589743589743185e-05,-1.758937728937728993e-04,-2.137430651943357702e+02,3.175313881579470240e-06,3.551496168958011168e+01,1.200078147985554864e+02
1.130842490842492355e-05,1.829670329670329037e-05,-1.784029304029304029e-04,-2.126534410750469135e+02,3.173951190496607997e-06,3.552297312127081597e+01,1.214485699384141384e+02
1.379926739926741441e-05,9.803418803418798228e-06,-1.779010989010989022e-04,-2.115892250907778021e+02,3.172576336372354037e-06,3.553064461735777257e+01,1.228461445625345902e+02
1.937875457875459290e-05,1.441147741147740758e-05,-1.703736263736263913e-04,-2.105500303583358175e+02,3.171190028208801726e-06,3.553797317499278563e+01,1.241998088930933761e+02
2.196923076923078407e-05,2.394383394383390836e-06,-1.563223443223443168e-04,-2.095354533720915242e+02,3.169792986704357754e-06,3.554495611829344170e+01,1.255088967158096693e+02
2.505787545787547171e-05,-2.755799755799759196e-06,-1.518058608058608103e-04,-2.085450743924695871e+02,3.168385943754510650e-06,3.555159109829497055e+01,1.267728052913293482e+02
2.266666666666668117e-05,1.219780219780216111e-06,-1.432747252747252709e-04,-2.075784578444568922e+02,3.166969641940238134e-06,3.555787609261903981e+01,1.279909952052274349e+02
2.924249084249085770e-05,4.743589743589739439e-06,-1.307289377289377527e-04,-2.066351527258333078e+02,3.165544834004462402e-06,3.556380940486075559e+01,1.291629901570412926e+02
3.213186813186814472e-05,7.183150183150178437e-06,-1.126630036630036724e-04,-2.057146930248270849e+02,3.164112282316937065e-06,3.556938966369534683e+01,1.302883766887803745e+02
3.741245421245422906e-05,6.189255189255184928e-06,-1.096520146520146545e-04,-2.048165981468858661e+02,3.162672758328040491e-06,3.557461582170611081e+01,1.313668038534411551e+02
3.731282051282052705e-05,2.055555555555554773e-05,-6.649450549450549729e-05,-2.039403733502526279e+02,3.161227042011857570e-06,3.557948715393580130e+01,1.323979828240877339e+02
2.914285714285715908e-05,2.444078144078143391e-05,-6.599267399267399656e-05,-2.030855101900257864e+02,3.159775921299050503e-06,3.558400325616327109e+01,1.333816864441269558e+02
3.153406593406594624e-05,2.995238095238094892e-05,-3.588278388278389884e-05,-2.022514869703771581e+02,3.158320191499940424e-06,3.558816404290818269e+01,1.343177487194577964e+02
2.535677655677657095e-05,1.920024420024419603e-05,-1.731501831501832796e-05,-2.014377692046006985e+02,3.156860654718291566e-06,3.559196974516615342e+01,1.352060642532293002e+02
2.366300366300367751e-05,1.667032967032966833e-05,2.490842490842357446e-07,-2.006438100826484572e+02,3.155398119256272311e-06,3.559542090787727631e+01,1.360465876239913428e+02
2.256703296703298255e-05,1.079731379731379174e-05,4.263736263736249805e-06,-1.998690509458183442e+02,3.153933399011095835e-06,3.559851838713127847e+01,1.368393327080773076e+02
1.589157509157510401e-05,6.279609279609275324e-06,1.781318681318679734e-05,-1.991129217682415629e+02,3.152467312863824847e-06,3.560126334711244311e+01,1.375843719471073143e+02
6.027838827838841758e-06,5.737484737484733795e-06,3.336996336996335709e-05,-1.983748416448191563e+02,3.151000684060862208e-06,3.560365725678808246e+01,1.382818355615551411e+02
1.190622710622712034e-05,7.634920634920630417e-06,4.240293040293038369e-05,-1.976542192852512869e+02,3.149534339588654258e-06,3.560570188634412148e+01,1.389319107113612404e+02
-1.997655677655676089e-05,4.562881562881558647e-06,2.835164835164833628e-05,-1.969504535137969867e+02,3.148069109542116381e-06,3.560739930337197023e+01,1.395348406046368268e+02
-3.482197802197801079e-05,4.382173382173377854e-06,1.530402930402929032e-05,-1.962629337743988742e+02,3.146605826487334725e-06,3.560875186881087728e+01,1.400909235555356531e+02
-6.022857142857141919e-05,3.749694749694745506e-06,-5.645787545787546923e-05,-1.955910406408047493e+02,3.145145324819071808e-06,3.560976223265004847e+01,1.406005119924324731e+02
-7.547252747252746017e-05,-5.285714285714288591e-06,-1.026263736263736308e-04,-1.949341463313104725e+02,3.143688440113641819e-06,3.561043332939537009e+01,1.410640114175760971e+02
-9.151355311355310364e-05,-3.117216117216120780e-06,-1.307289377289377527e-04,-1.942916152277514925e+02,3.142236008477703212e-06,3.561076837330539746e+01,1.414818793194428110e+02
-1.031706959706959537e-04,-3.840048840048843949e-06,-1.247069597069597169e-04,-1.936628043983603504e+02,3.140788865893527659e-06,3.561077085340177462e+01,1.418546240390496394e+02
-1.079531135531135551e-04,-4.382173382173386325e-06,-1.287216117216117227e-04,-1.930470641241093688e+02,3.139347847561322999e-06,3.561044452825905893e+01,1.421828035915302735e+02
-1.074549450549450316e-04,1.355311355311318353e-07,-1.257106227106227184e-04,-1.924437384281540631e+02,3.137913787239176897e-06,3.560979342057975572e+01,1.424670244443210834e+02
-1.000820512820512729e-04,2.304029304029300016e-06,-1.211941391941392119e-04,-1.918521656079885815e+02,3.136487516581199689e-06,3.560882181155967174e+01,1.427079402533370569e+02
-9.480146520146518852e-05,4.065934065934028646e-07,-1.166776556776556918e-04,-1.912716787699266092e+02,3.135069864474450481e-06,3.560753423504977633e+01,1.429062505585597478e+02
-8.204835164835164348e-05,5.918192918192913740e-06,-1.016227106227106294e-04,-1.907016063655146354e+02,3.133661656375219491e-06,3.560593547152016924e+01,1.430626994404914853e+02
-7.168644688644686526e-05,8.448107448107444829e-06,-1.016227106227106294e-04,-1.901412727294872980e+02,3.132263713645269739e-06,3.560403054183240812e+01,1.431780741389684692e+02
-6.192234432234431263e-05,3.930402930402926721e-06,-7.602930402930403817e-05,-1.895899986188694015e+02,3.130876852888623804e-06,3.560182470082648365e+01,1.432532036358579148e+02
-4.697728937728936412e-05,1.043589743589743185e-05,-4.642124542124542762e-05,-1.890471017528331572e+02,3.129501885289465695e-06,3.559932343072868832e+01,1.432889572031919840e+02
-3.053772893772892618e-05,7.634920634920630417e-06,-3.487912087912089062e-05,-1.885118973529130812e+02,3.128139615951790155e-06,3.559653243438705772e+01,1.432862429183281563e+02
-1.619047619047617954e-05,9.351648351648348789e-06,-1.882051282051283014e-05,-1.879836986831858781e+02,3.126790843241349118e-06,3.559345762834110616e+01,1.432460061477495117e+02
-5.728937728937715411e-06,1.215262515262514852e-05,4.842490842490840595e-05,-1.874618175900187964e+02,3.125456358130517461e-06,3.559010513573245760e+01,1.431692280011436367e+02
8.518681318681331765e-06,1.721245421245420901e-05,4.942857142857141417e-05,-1.869455650409926477e+02,3.124136943546665055e-06,3.558648127906361225e+01,1.430569237574340491e+02
2.266666666666668117e-05,1.486324786324785702e-05,5.846153846153844078e-05,-1.864342516626044244e+02,3.122833373724609818e-06,3.558259257281181220e+01,1.429101412644508002e+02
2.655238095238096792e-05,1.630891330891330335e-05,6.498534798534796376e-05,-1.859271882763582937e+02,3.121546413563767138e-06,3.557844571590500493e+01,1.427299593139541400e+02
4.149743589743590965e-05,1.549572649572649233e-05,8.104395604395602762e-05,-1.854236864328496495e+02,3.120276817990563613e-06,3.557404758406759981e+01,1.425174859937458507e+02
4.478534798534800131e-05,-5.285714285714288591e-06,8.857142857142855205e-05,-1.849230589434554872e+02,3.119025331326705480e-06,3.556940522204302368e+01,1.422738570186242839e+02
5.116190476190477383e-05,-9.984126984126987490e-06,9.760439560439559221e-05,-1.844246204092387700e+02,3.117792686663887031e-06,3.556452583570084869e+01,1.420002340419472375e+02
5.534652014652016321e-05,8.448107448107444829e-06,1.096483516483516367e-04,-1.839276877466836595e+02,3.116579605245514163e-06,3.555941678403594608e+01,1.416978029495947169e+02
5.843516483516485085e-05,-1.739316239316239488e-05,1.141648351648351432e-04,-1.834315807098721507e+02,3.115386795856014375e-06,3.555408557106730427e+01,1.413677721381293679e+02
4.996630036630037686e-05,1.585714285714285053e-05,1.357435897435897286e-04,-1.829356224087268572e+02,3.114214954218301575e-06,3.554853983764437686e+01,1.410113707789604689e+02
4.717655677655678846e-05,-7.815628815628817986e-06,9.660073260073257721e-05,-1.824391398229347772e+02,3.113064762399969137e-06,3.554278735316869131e+01,1.406298470703468126e+02
3.581831501831503085e-05,-1.039072039072042731e-06,1.066373626373626188e-04,-1.819414643111803969e+02,3.111936888228746534e-06,3.553683600723853431e+01,1.402244664790522393e+02
3.133479853479854900e-05,-4.924297924297927854e-06,1.377509157509157315e-04,-1.814419321153142448e+02,3.110831984717795956e-06,3.553069380122474286e+01,1.397965099735079377e+02
3.113553113553115177e-05,-1.490842490842494287e-06,1.322307692307692236e-04,-1.809398848590892044e+02,3.109750689501369410e-06,3.552436883978547399e+01,1.393472722503115619e+02
3.163369963369964824e-05,-1.423076923076923356e-05,1.091465201465201224e-04,-1.804346700410992526e+02,3.108693624281378564e-06,3.551786932232806038e+01,1.388780599559150346e+02
3.502124542124543513e-05,7.363858363858359229e-06,1.156703296703296454e-04,-1.799256415215616585e+02,3.107661394285399966e-06,3.551120353442577482e+01,1.383901899053473699e+02
3.153406593406594624e-05,1.224297924297923807e-05,1.618388278388278206e-04,-1.794121600025854093e+02,3.106654587736624272e-06,3.550437983919791662e+01,1.378849872998206365e+02
3.661538461538463334e-05,-1.441147741147741435e-05,1.387545787545787330e-04,-1.788935935015786356e+02,3.105673775336279304e-06,3.549740666866088645e+01,1.373637839450604190e+02
3.731282051282052705e-05,-1.129426129426133127e-06,1.161721611721611461e-04,-1.783693178174443119e+02,3.104719509759011444e-06,3.549029251505864835e+01,1.368279164722087273e+02
3.950476190476191697e-05,-5.466422466422470230e-06,1.462820512820512710e-04,-1.778387169892300790e+02,3.103792325161724257e-06,3.548304592218048725e+01,1.362787245631272697e+02
4.807326007326008619e-05,2.123321123321119648e-06,1.518021978021977790e-04,-1.773011837468917804e+02,3.102892736706343619e-06,3.547567547667421906e+01,1.357175491819394040e+02
3.960439560439561898e-05,5.556776556776553003e-06,1.457802197802197702e-04,-1.767561199538483265e+02,3.102021240096995944e-06,3.546818979936290361e+01,1.351457308146175933e+02
4.986666666666668163e-05,1.039072039072035319e-06,9.308791208791207213e-05,-1.762029370409997568e+02,3.101178311132039566e-06,3.546059753657311830e+01,1.345646077184408966e+02
5.325421245421246852e-05,6.098901098901094532e-06,1.297216117216116928e-04,-1.756410564318965157e+02,3.100364405271399886e-06,3.545290735148267913e+01,1.339755141831026037e+02
5.166007326007327030e-05,9.803418803418798228e-06,1.342380952380951994e-04,-1.750699099587493777e+02,3.099579957219645776e-06,3.544512791549607300e+01,1.333797788052636974e+02
6.062710622710624077e-05,7.092796092796088888e-06,1.462820512820512710e-04,-1.744889402689775864e+02,3.098825380525217640e-06,3.543726789965523949e+01,1.327787227783097990e+02
4.598095238095239150e-05,5.737484737484733795e-06,1.226959706959706827e-04,-1.738976012219995937e+02,3.098101067196228934e-06,3.542933596609380231e+01,1.321736581990641071e+02
4.657875457875459676e-05,3.207570207570203553e-06,1.216923076923076677e-04,-1.732953582759801066e+02,3.097407387333212164e-06,3.542134075954241723e+01,1.315658863931843712e+02
5.086300366300368136e-05,4.111111111111106666e-06,2.784981684981683556e-05,-1.726816888642513845e+02,3.096744688779212541e-06,3.541329089889327264e+01,1.309566962609515315e+02
5.674139194139195741e-05,3.568986568986565137e-06,2.182783882783881330e-05,-1.720560827611384127e+02,3.096113296787568104e-06,3.540519496883104722e+01,1.303473626451411462e+02
5.713992673992675188e-05,-2.258852258852295635e-07,-3.263736263736276743e-06,-1.714180424369213256e+02,3.095513513707749861e-06,3.539706151153833957e+01,1.297391447226295327e+02
5.474871794871796472e-05,5.873015873015835508e-07,2.835164835164833628e-05,-1.707670834016816457e+02,3.094945618689583388e-06,3.538889901848291686e+01,1.291332844213819726e+02
5.793699633699635437e-05,2.304029304029300016e-06,-7.780219780219793858e-06,-1.701027345377824531e+02,3.094409867406161907e-06,3.538071592229418627e+01,1.285310048644230392e+02
6.022857142857144630e-05,1.061660561660561264e-05,1.078754578754577363e-05,-1.694245384207441703e+02,3.093906491795781602e-06,3.537252058873635008e+01,1.279335088423739677e+02
6.042783882783884353e-05,3.659340659340655533e-06,2.734798534798533483e-05,-1.687320516282881897e+02,3.093435699823149060e-06,3.536432130878550595e+01,1.273419773161054991e+02
5.983003663003664505e-05,-6.550671550671554135e-06,1.179120879120877678e-05,-1.680248450373232174e+02,3.092997675260164481e-06,3.535612629081768432e+01,1.267575679510231907e+02
5.893333333333334732e-05,1.314652014652014203e-05,3.437362637362635854e-05,-1.673025041086658291e+02,3.092592577486508525e-06,3.534794365291499929e+01,1.261814136844699590e+02
5.913260073260074456e-05,1.314652014652014203e-05,3.838827838827837111e-05,-1.665646291592917976e+02,3.092220541310283086e-06,3.533978141529673422e+01,1.256146213276986856e+02
5.773772893772895036e-05,1.070695970695970219e-05,2.584249084249082927e-05,-1.658108356219254915e+02,3.091881676808919443e-06,3.533164749288208384e+01,1.250582702038255434e+02
6.242051282051283621e-05,2.245299145299144690e-05,3.136263736263734741e-05,-1.650407542917835997e+02,3.091576069190555819e-06,3.532354968799131711e+01,1.245134108231419248e+02
6.401465201465202765e-05,2.010378510378509829e-05,8.305128205128204408e-05,-1.642540315603003762e+02,3.091303778676068128e-06,3.531549568319177723e+01,1.239810635971230539e+02
6.919560439560440998e-05,1.712210012210011776e-05,4.190109890109888974e-05,-1.634503296356732847e+02,3.091064840401912766e-06,3.530749303429492869e+01,1.234622175924327081e+02
6.391501831501833920e-05,1.115873015873015332e-05,5.695604395604393860e-05,-1.626293267500707032e+02,3.090859264343933871e-06,3.529954916351096017e+01,1.229578293261791799e+02
6.710329670329672207e-05,1.355311355311318353e-07,1.031245421245421002e-04,-1.617907173533662331e+02,3.090687035262273152e-06,3.529167135276667011e+01,1.224688216036354760e+02
5.793699633699635437e-05,6.776556776556738409e-07,6.749450549450546739e-05,-1.609342122932604866e+02,3.090548112667465698e-06,3.528386673719260358e+01,1.219960823996018888e+02
5.604395604395606369e-05,-2.665445665445669224e-06,5.695604395604393860e-05,-1.600595389816735405e+02,3.090442430807833591e-06,3.527614229878530949e+01,1.215404637845260964e+02
5.494798534798536196e-05,7.363858363858359229e-06,6.799633699633698166e-05,-1.591664415472939709e+02,3.090369898678250150e-06,3.526850486024988385e+01,1.211027808964741013e+02
5.435018315018317025e-05,-4.020757020757023894e-06,4.792307692307690522e-05,-1.582546809741857032e+02,3.090330400050307014e-06,3.526096107902858279e+01,1.206838109599749913e+02
5.056410256410258212e-05,-4.743589743589747062e-06,6.297802197802196086e-05,-1.573240352263627244e+02,3.090323793523946730e-06,3.525351744152028743e+01,1.202842923527330754e+02
5.943150183150184380e-05,-3.162393162393199330e-07,1.480219780219778790e-05,-1.563742993582524718e+02,3.090349912600551528e-06,3.524618025749604300e+01,1.199049237211420262e+02
5.833553113553115562e-05,1.490842490842487087e-06,5.394505494505493425e-05,-1.554052856109813945e+02,3.090408565777491257e-06,3.523895565471539015e+01,1.195463631454905595e+02
4.807326007326008619e-05,-4.020757020757023894e-06,2.283150183150181814e-05,-1.544168234944253584e+02,3.090499536664107610e-06,3.523184957374797222e+01,1.192092273556938551e+02
5.175970695970697231e-05,2.254334554334553814e-05,2.684615384615383072e-05,-1.534087598549795075e+02,3.090622584119103711e-06,3.522486776300507216e+01,1.188940909983440406e+02
5.365274725274726299e-05,3.207570207570203553e-06,-1.129304029304030571e-05,-1.523809589290142981e+02,3.090777442409241670e-06,3.521801577398495908e+01,1.186014859558080303e+02
4.299194139194140586e-05,1.233333333333332762e-05,3.236630036630034886e-05,-1.513333023819927234e+02,3.090963821389303624e-06,3.521129895673622201e+01,1.183319007180563602e+02
4.289230769230771063e-05,2.123321123321119648e-06,2.935531135531134112e-05,-1.502656893332398909e+02,3.091181406703197265e-06,3.520472245554284285e+01,1.180857798078563832e+02
3.990329670329671822e-05,9.713064713064708679e-06,3.186446886446884813e-05,-1.491780363663616527e+02,3.091429860006079642e-06,3.519829120483444029e+01,1.178635232598974056e+02
4.109890109890111518e-05,3.568986568986565137e-06,2.132600732600731258e-05,-1.480702775253240588e+02,3.091708819207372187e-06,3.519200992532522321e+01,1.176654861543735819e+02
4.119853479853481041e-05,7.680097680097642369e-07,4.842490842490840595e-05,-1.469423642962176473e+02,3.092017898734501359e-06,3.518588312038455257e+01,1.174919782054898434e+02
4.040146520146522147e-05,5.376068376068372211e-06,5.093406593406591635e-05,-1.457942655747359879e+02,3.092356689817190432e-06,3.517991507264223117e+01,1.173432634052981882e+02
3.402490842490843540e-05,8.448107448107444829e-06,3.387179487179485781e-05,-1.446259676194179349e+02,3.092724760792094050e-06,3.517410984083095826e+01,1.172195597232228579e+02
3.561904761904763361e-05,1.332722832722832113e-05,6.950183150183148384e-05,-1.434374739907051435e+02,3.093121657427575219e-06,3.516847125686865638e+01,1.171210388615697156e+02
3.163369963369964824e-05,6.912087912087907249e-06,4.441025641025639337e-05,-1.422288054758857356e+02,3.093546903268389694e-06,3.516300292318259579e+01,1.170478260672635713e+02
3.003956043956045681e-05,7.996336996336992001e-06,5.494871794871792893e-05,-1.409999999999999432e+02,3.093999999999998668e-06,3.515770821027761173e+01,1.169999999999998437e+02
2.535677655677657095e-05,9.442002442002438338e-06,6.749450549450546739e-05,-1.397511125227989623e+02,3.094480427832282312e-06,3.515259025454990649e+01,1.169775926569400184e+02
2.535677655677657095e-05,4.833943833943829835e-06,6.799633699633698166e-05,-1.384822149218568086e+02,3.094987645902322582e-06,3.514765195634808492e+01,1.169805893540159616e+02
2.645274725274726930e-05,4.111111111111106666e-06,3.086080586080584668e-05,-1.371933958619475220e+02,3.095521092695979138e-06,3.514289597828273060e+01,1.170089287638708839e+02
2.824615384615386136e-05,-2.936507936507939988e-06,7.652747252747250754e-05,-1.358847606508101080e+02,3.096080186487912372e-06,3.513832474378552462e+01,1.170625030103838071e+02
2.306520146520147903e-05,4.382173382173377854e-06,6.097069597069595118e-05,-1.345564310814353348e+02,3.096664325799729131e-06,3.513394043591866023e+01,1.171411578196850911e+02
2.167032967032968483e-05,-3.930402930402934345e-06,3.939194139194137934e-05,-1.332085452610182301e+02,3.097272889875877163e-06,3.512974499643529924e+01,1.172446927275035193e+02
2.446007326007327662e-05,-1.188156288156288496e-05,6.448351648351646303e-05,-1.318412574267313460e+02,3.097905239176918149e-06,3.512574012509125509e+01,1.173728613426362415e+02
1.758534798534800084e-05,2.575091575091571205e-06,4.591575091575090232e-05,-1.304547377484865649e+02,3.098560715889794744e-06,3.512192727920808011e+01,1.175253716662718517e+02
1.100952380952382262e-05,2.575091575091571205e-06,6.297802197802196086e-05,-1.290491721188579675e+02,3.099238644454666013e-06,3.511830767348741489e+01,1.177018864668390421e+02
2.042490842490856392e-06,-1.043589743589743862e-05,2.283150183150181814e-05,-1.276247619303564989e+02,3.099938332107901715e-06,3.511488228007623036e+01,1.179020237100037747e+02
-2.640293040293026498e-06,-4.924297924297927854e-06,7.050549450549449884e-05,-1.261817238402501857e+02,3.100659069440792012e-06,3.511165182888238689e+01,1.181253570433779316e+02
-5.230769230769217241e-06,-4.291819291819295082e-06,3.738461538461536966e-05,-1.247202895231388169e+02,3.101400130973509696e-06,3.510861680813950159e+01,1.183714163354428734e+02
-8.817582417582403901e-06,-5.195360195360199042e-06,1.881684981684980218e-05,-1.232407054114986238e+02,3.102160775743868396e-06,3.510577746522043441e+01,1.186396882681516018e+02
-1.668864468864467602e-05,-6.460317460317463739e-06,6.799633699633698166e-05,-1.217432324244254431e+02,3.102940247910378266e-06,3.510313380769757430e+01,1.189296169825989438e+02
-1.878095238095236732e-05,-1.115873015873016179e-05,3.638095238095236144e-05,-1.202281456848101584e+02,3.103737777369115102e-06,3.510068560464886644e+01,1.192406047771123241e+02
-1.579194139194137829e-05,-1.097802197802198100e-05,6.046886446886445046e-05,-1.186957342251952525e+02,3.104552580383876422e-06,3.509843238820752021e+01,1.195720128570550571e+02
-8.120146520146506801e-06,-1.621855921855922227e-05,5.444688644688642820e-05,-1.171463006825651121e+02,3.105383860229114634e-06,3.509637345535344366e+01,1.199231621355810944e+02
-2.944175824175822783e-05,-4.382173382173386325e-06,3.989377289377287329e-05,-1.155801609823350162e+02,3.106230807845103464e-06,3.509450786994432292e+01,1.202933340845312102e+02
-3.033846153846152556e-05,-1.287545787545787847e-05,6.799633699633698166e-05,-1.139976440118131080e+02,3.107092602504782006e-06,3.509283446498377401e+01,1.206817716346123888e+02
-3.701391941391940071e-05,-1.657997557997558386e-05,-2.527472527472660394e-07,-1.123990912834147480e+02,3.107968412491722862e-06,3.509135184512391703e+01,1.210876801239440255e+02
-3.302857142857141534e-05,-1.477289377289377424e-05,-1.279853479853481127e-05,-1.107848565879219080e+02,3.108857395788654728e-06,3.509005838939956590e+01,1.215102282940124496e+02
-3.053772893772892618e-05,-1.423076923076923356e-05,-5.244322344322345665e-05,-1.091553056380840729e+02,3.109758700775946942e-06,3.508895225419085051e+01,1.219485493320273548e+02
-2.655238095238093743e-05,-1.007448107448107704e-05,-4.240659340659341505e-05,-1.075108157028690101e+02,3.110671466939469830e-06,3.508803137641100989e+01,1.224017419586187856e+02
-2.256703296703295206e-05,-9.713064713064715455e-06,-2.735164835164836280e-05,-1.058517752326767578e+02,3.111594825587221007e-06,3.508729347691591016e+01,1.228688715597782277e+02
-2.396190476190474626e-05,-1.323687423687423836e-05,-1.079120879120880329e-05,-1.041785834758378257e+02,3.112527900574120035e-06,3.508673606413127288e+01,1.233489713618917563e+02
-2.455970695970694474e-05,4.517704517704145916e-08,2.758241758241744664e-06,-1.024916500867275175e+02,3.113469809034325998e-06,3.508635643789421721e+01,1.238410436486749262e+02
-2.167032967032965772e-05,-1.820634920634920929e-05,-3.638461538461539957e-05,-1.007913947258300169e+02,3.114419662120479587e-06,3.508615169350438379e+01,1.243440610187786319e+02
-2.974065934065932707e-05,-6.098901098901102155e-06,3.688278388278386894e-05,-9.907824665209699333e+01,3.115376565749203893e-06,3.508611872598086023e+01,1.248569676827805068e+02
-2.495824175824174260e-05,-5.737484737484740571e-06,-6.097435897435898254e-05,-9.735264430794987334e+01,3.116339621352237982e-06,3.508625423451999126e+01,1.253786807982566529e+02
-2.306520146520145192e-05,1.355311355311318353e-07,3.761904761904748232e-06,-9.561503489728137595e+01,3.117307926632557799e-06,3.508655472714965384e+01,1.259080918415659909e+02
-2.555604395604394108e-05,-4.653235653235656666e-06,2.634432234432232661e-05,-9.386587395681942780e+01,3.118280576324806344e-06,3.508701652557503792e+01,1.264440680149620562e+02
-2.127179487179485986e-05,2.394383394383390836e-06,-2.183150183150184466e-05,-9.210562492121989919e+01,3.119256662959398282e-06,3.508763577021085212e+01,1.269854536875946565e+02
-2.077362637362636000e-05,-4.065934065934102761e-07,-7.545787545787678233e-07,-9.033475868226192063e+01,3.120235277629613738e-06,3.508840842539476768e+01,1.275310718689384260e+02
-1.758534798534797035e-05,-2.755799755799759196e-06,1.128937728937727605e-05,-8.855375314252462715e+01,3.121215510761027350e-06,3.508933028477673588e+01,1.280797257131464448e+02
-2.047472527472526076e-05,-8.357753357753362056e-06,1.754578754578741097e-06,-8.676309276392704817e+01,3.122196452882582695e-06,3.509039697687860127e+01,1.286302000527972496e+02
-8.419047619047604348e-06,-1.540537240537240786e-05,-5.772893772893785875e-06,-8.496326811152042069e+01,3.123177195398656038e-06,3.509160397081835470e+01,1.291812629604670519e+02
-1.369963369963368530e-05,-8.267399267399270813e-06,3.761904761904748232e-06,-8.315477539292379561e+01,3.124156831361411896e-06,3.509294658219312879e+01,1.297316673365417330e+02
-1.041172161172159703e-05,-7.905982905982909229e-06,1.329670329670328234e-05,-8.133811599379939139e+01,3.125134456242785051e-06,3.509441997911494582e+01,1.302801525216360119e+02
-1.071062271062269627e-05,-9.984126984126987490e-06,2.584249084249082927e-05,-7.951379600976697759e+01,3.126109168705404623e-06,3.509601918839312162e+01,1.308254459319817045e+02
-1.160732600732599400e-05,-1.142979242979243383e-05,1.128937728937727605e-05,-7.768232577516064907e+01,3.127080071371770291e-06,3.509773910185707990e+01,1.313662647161037000e+02
-1.549304029304027905e-05,-9.351648351648355565e-06,1.252747252747239313e-06,-7.584421938903251714e+01,3.128046271591015738e-06,3.509957448281301851e+01,1.319013174310925649e+02
-9.216117216117201760e-06,-2.394383394383397612e-06,-2.761904761904775171e-06,-7.399999423881372707e+01,3.129006882202568145e-06,3.510151997262818924e+01,1.324293057367530082e+02
-1.489523809523808057e-05,-6.641025641025644531e-06,2.835164835164833628e-05,-7.215017052204144932e+01,3.129961022296025262e-06,3.510357009743587753e+01,1.329489261058883756e+02
-1.868131868131866870e-05,-3.478632478632481941e-06,-1.932234432234433425e-05,-7.029527076656769680e+01,3.130907817966580892e-06,3.510571927495458056e+01,1.334588715489674655e+02
-1.479560439560438195e-05,-7.092796092796095664e-06,8.278388278388264923e-06,-6.843581934966033486e+01,3.131846403065311856e-06,3.510796182141432809e+01,1.339578333513967152e+02
-9.614652014652001313e-06,-6.008547008547011759e-06,2.835164835164833628e-05,-6.657234201641658444e+01,3.132775919943683951e-06,3.511029195858341723e+01,1.344445028216112235e+02
-9.315750915750902072e-06,-3.207570207570211176e-06,3.186446886446884813e-05,-6.470536539790238351e+01,3.133695520191560323e-06,3.511270382088840591e+01,1.349175730481796052e+02
-7.323076923076909388e-06,-9.622710622710625906e-06,-2.260073260073273175e-06,-6.283541652943767986e+01,3.134604365368116366e-06,3.511519146262024549e+01,1.353757406641126977e+02
-1.071062271062269627e-05,-1.748351648351648613e-05,7.251282051282048819e-05,-6.096302236944372055e+01,3.135501627724944118e-06,3.511774886521943984e+01,1.358177076165482049e+02
-1.310183150183148851e-05,-7.634920634920638888e-06,-1.129304029304030571e-05,-5.908870931927145875e+01,3.136386490920724882e-06,3.512036994463298356e+01,1.362421829399804949e+02
-1.110915750915749583e-05,-1.197191697191697451e-05,5.193772893772891780e-05,-5.721300274442809553e+01,3.137258150726827572e-06,3.512304855873563270e+01,1.366478845311993950e+02
-1.688791208791207325e-05,-2.073626373626374038e-05,-2.132967032967034054e-05,-5.533642649761845433e+01,3.138115815723186094e-06,3.512577851480833857e+01,1.370335409240901470e+02
-2.157069597069595572e-05,-3.207570207570211176e-06,5.946520146520144901e-05,-5.345950244401752371e+01,3.138958707983820893e-06,3.512855357706623494e+01,1.373978930624543580e+02
-2.226813186813185621e-05,-2.751282051282051246e-05,-4.140293040293041360e-05,-5.158274998918810184e+01,3.139786063751396090e-06,3.513136747422879580e+01,1.377396960689972616e+02
-1.758534798534797035e-05,-2.037484737484737541e-05,2.885347985347983701e-05,-4.970668561005708597e+01,3.140597134100190900e-06,3.513421390712471748e+01,1.380577210086420337e+02
-2.296556776556774992e-05,-2.308547008547008898e-05,4.765567765567752224e-06,-4.783182238935972208e+01,3.141391185586879276e-06,3.513708655632390787e+01,1.383507566443225301e+02
-3.332747252747251458e-05,-4.020757020757023894e-06,1.078754578754577363e-05,-4.595866955396113696e+01,3.142167500888529107e-06,3.513997908978905116e+01,1.386176111834147662e+02
-3.920586080586079062e-05,-1.296581196581196971e-05,1.016190476190475980e-04,-4.408773201746105030e+01,3.142925379427236073e-06,3.514288517053926597e+01,1.388571140129734829e+02
-4.239413919413918705e-05,-7.363858363858366853e-06,1.513003663003662782e-04,-4.221950992748276832e+01,3.143664137980809413e-06,3.514579846431819021e+01,1.390681174219502054e+02
-3.661538461538460623e-05,-6.008547008547011759e-06,1.954615384615384505e-04,-4.035449821804652260e+01,3.144383111278969195e-06,3.514871264725901767e+01,1.392494983085674107e+02
-3.392527472527471306e-05,-1.115873015873016179e-05,2.431355311355311007e-04,-3.849318616742223753e+01,3.145081652584485033e-06,3.515162141353877701e+01,1.394001598710547398e+02
-3.940512820512818786e-05,-1.115873015873016179e-05,1.447765567765567417e-04,-3.663605696185303628e+01,3.145759134258726433e-06,3.515451848301454874e+01,1.395190332799434429e+02
-4.598095238095236439e-05,-1.947130647130647314e-05,2.245677655677655467e-04,-3.478358726553582159e+01,3.146414948311104267e-06,3.515739760883383980e+01,1.396050793301479871e+02
-4.219487179487178304e-05,-1.603785103785103979e-05,1.578241758241757877e-04,-3.293624679724150184e+01,3.147048506931890495e-06,3.516025258501181128e+01,1.396572900710685303e+02
-3.741245421245420195e-05,-2.145909645909646016e-05,1.392564102564102337e-04,-3.109449791395175211e+01,3.147659243007921469e-06,3.516307725396777073e+01,1.396746904129746838e+02
-3.432380952380951431e-05,-2.895848595848596219e-05,1.457802197802197702e-04,-2.925879520188372851e+01,3.148246610620695661e-06,3.516586551401359628e+01,1.396563397079406172e+02
-3.342710622710621659e-05,-1.377899877899878074e-05,1.176776556776556619e-04,-2.742958507526840606e+01,3.148810085526413064e-06,3.516861132678669577e+01,1.396013333036367783e+02
-3.880732600732599615e-05,-1.034554334554334907e-05,1.417655677655677373e-04,-2.560730538324353844e+01,3.149349165617484486e-06,3.517130872462015390e+01,1.395088040682891233e+02
-3.661538461538460623e-05,-1.170085470085470247e-05,1.553150183150183111e-04,-2.379238502521298670e+01,3.149863371365103721e-06,3.517395181784285541e+01,1.393779238851605839e+02
-3.243076923076922363e-05,-2.846153846153849592e-06,1.252051282051281863e-04,-2.198524357502078885e+01,3.150352246242428172e-06,3.517653480200243621e+01,1.392079051149187592e+02
-3.352673992673991182e-05,-1.287545787545787847e-05,1.397582417582417344e-04,-2.018629091427944644e+01,3.150815357127996934e-06,3.517905196500383624e+01,1.389980020242934131e+02
-3.043809523809522417e-05,-7.273504273504276456e-06,1.016190476190475980e-04,-1.839592687518454284e+01,3.151252294688981008e-06,3.518149769415657602e+01,1.387475121794500126e+02
-2.964102564102562507e-05,-2.082661782661782824e-05,1.568205128205128133e-04,-1.661454089314197446e+01,3.151662673743904834e-06,3.518386648312371534e+01,1.384557778025420873e+02
-2.525714285714284523e-05,-1.251404151404151688e-05,1.011172161172160973e-04,-1.484251166952424583e+01,3.152046133604492699e-06,3.518615293876575834e+01,1.381221870899297528e+02
-2.475897435897434537e-05,-1.549572649572649911e-05,1.362454212454212294e-04,-1.308020684486497487e+01,3.152402338396290183e-06,3.518835178787256979e+01,1.377461754905958742e+02
-2.416117216117215027e-05,-2.136874236874236892e-05,1.086446886446886217e-04,-1.132798268279376863e+01,3.152730977357770979e-06,3.519045788377698614e+01,1.373272269433187773e+02
-2.226813186813185621e-05,-1.332722832722833130e-05,7.753113553113550899e-05,-9.586183765001207391e+00,3.153031765117619479e-06,3.519246621284334253e+01,1.368648750711984405e+02
-1.838241758241756946e-05,-1.296581196581196971e-05,1.342380952380951994e-04,-7.855142697520204997e+00,3.153304441949912155e-06,3.519437190082454947e+01,1.363587043321753924e+02
-2.176996336996335634e-05,-1.522466422466422707e-05,8.907326007326005278e-05,-6.135179828595408225e+00,3.153548774006944470e-06,3.519617021908168653e+01,1.358083511242173529e+02
-2.565567765567764309e-05,-1.039072039072042731e-06,1.171758241758241612e-04,-4.426602978406765310e+00,3.153764553529475468e-06,3.519785659065957617e+01,1.352135048438892397e+02
-2.455970695970694474e-05,-1.395970695970696322e-05,7.201098901098898746e-05,-2.729707180900964758e+00,3.153951599034154141e-06,3.519942659621275283e+01,1.345739088970681223e+02
-2.236776556776555482e-05,4.382173382173377854e-06,1.407619047619047630e-04,-1.044774437977641357e+00,3.154109755477942499e-06,3.520087597977572358e+01,1.338893616606018782e+02
-2.356336996336994840e-05,-9.170940170940173079e-06,1.558168498168498119e-04,6.279265137364078431e-01,3.154238894399362977e-06,3.520220065437182910e+01,1.331597173937616958e+02
-2.645274725274723881e-05,-1.197191697191697451e-05,1.041282051282051016e-04,2.288140423299453552e+00,3.154338914036398216e-06,3.520339670745519811e+01,1.323848870983791528e+02
-1.818315018315017222e-05,-2.213675213675217244e-06,6.799633699633698166e-05,3.935625732839961088e+00,3.154409739420923382e-06,3.520446040618048755e+01,1.315648393266051244e+02
-2.157069597069595572e-05,-4.562881562881566270e-06,1.121575091575091403e-04,5.570154771710609687e+00,3.154451322449546919e-06,3.520538820249490897e+01,1.306996009352843942e+02
-1.888058608058606593e-05,-9.080586080586083530e-06,1.021208791208790987e-04,7.191513937220190833e+00,3.154463641930771647e-06,3.520617673804785852e+01,1.297892577859711309e+02
-2.266666666666665406e-05,-1.079731379731380190e-05,1.206886446886446662e-04,8.799503861760682000e+00,3.154446703608394051e-06,3.520682284891284297e+01,1.288339553896826999e+02
-2.246739926739925344e-05,-8.899877899877902738e-06,6.347985347985346158e-05,1.039393956616173575e+01,3.154400540161107019e-06,3.520732357011733171e+01,1.278338994955189207e+02
-2.157069597069595572e-05,-8.628815628815630703e-06,1.021208791208790987e-04,1.197465059911145246e+01,3.154325211178252679e-06,3.520767613997584533e+01,1.267893566223398381e+02
-2.057435897435895938e-05,-5.195360195360199042e-06,9.358974358974357286e-05,1.354148116250114953e+01,3.154220803111736760e-06,3.520787800422186820e+01,1.257006545327415239e+02
-2.196923076923075358e-05,-1.133943833943834258e-05,6.448351648351646303e-05,1.509429022255404007e+01,3.154087429204111686e-06,3.520792681993464157e+01,1.245681826486241732e+02
-2.296556776556774992e-05,-2.109768009768009858e-05,9.459340659340657431e-05,1.663295160662023875e+01,3.153925229392849570e-06,3.520782045925662374e+01,1.233923924076982104e+02
-2.386227106227104764e-05,-1.676068376068376296e-05,7.853479853479852400e-05,1.815735408552415819e+01,3.153734370190878379e-06,3.520755701289808570e+01,1.221737975603354869e+02
-2.246739926739925344e-05,-1.495360195360195673e-05,9.007692307692306778e-05,1.966740144136728574e+01,3.153515044543439722e-06,3.520713479342505536e+01,1.209129744062184670e+02
-1.878095238095236732e-05,-1.170085470085470247e-05,3.838827838827837111e-05,2.116301252069980166e+01,3.153267471661387680e-06,3.520655233832746234e+01,1.196105619703065202e+02
-1.838241758241756946e-05,-1.703174603174603330e-05,8.756776556776555060e-05,2.264412127298768596e+01,3.152991896831025680e-06,3.520580841286417240e+01,1.182672621176833445e+02
-2.236776556776555482e-05,-1.748351648351648613e-05,9.459340659340657431e-05,2.411067677431559275e+01,3.152688591200630044e-06,3.520490201268197694e+01,1.168838396069214554e+02
-2.167032967032965772e-05,-1.522466422466422707e-05,6.749450549450546739e-05,2.556264323627430457e+01,3.152357851543827530e-06,3.520383236620597245e+01,1.154611220816392461e+02
-2.555604395604394108e-05,-1.206227106227106575e-05,5.093406593406591635e-05,2.699999999999997868e+01,3.151999999999999637e-06,3.520259893679858010e+01,1.139999999999999574e+02
-2.575531135531134171e-05,-1.260439560439560643e-05,6.699267399267398021e-05,2.842274151534160254e+01,3.151615383791924594e-06,3.520120142468503843e+01,1.125014265019515278e+02
-3.910622710622709539e-05,-2.046520146520146665e-05,7.652747252747250754e-05,2.983087730514601432e+01,3.151204374920869642e-06,3.519963976864331556e+01,1.109664172140629859e+02
-5.634285714285712905e-05,-1.802564102564102681e-05,2.634432234432232661e-05,3.122443191466439671e+01,3.150767369839388132e-06,3.519791414745645852e+01,1.093960499918817106e+02
-8.145054945054944499e-05,-1.820634920634920929e-05,4.641758241758240305e-05,3.260344484609520777e+01,3.150304789102083610e-06,3.519602498112586630e+01,1.077914645997807668e+02
-1.029714285714285497e-04,-2.344688644688644718e-05,4.390842490842488587e-05,3.396797047829476668e+01,3.149817076994618702e-06,3.519397293184402287e+01,1.061538623283367997e+02
-1.157245421245421219e-04,-2.118803418803418982e-05,3.260073260073246660e-06,3.531807797169372520e+01,3.149304701141284748e-06,3.519175890472543955e+01,1.044845055493301800e+02
-1.256879120879120649e-04,-1.892918192918193246e-05,6.197435897435895941e-05,3.665385115847755770e+01,3.148768152091441354e-06,3.518938404829501110e+01,1.027847172085220535e+02
-1.268835164835164619e-04,-2.633821733821733985e-05,7.401831501831500392e-05,3.797538841809749499e+01,3.148207942885179497e-06,3.518684975473285448e+01,1.010558802564174812e+02
-1.245919413919413835e-04,-2.118803418803418982e-05,5.745787545787544611e-05,3.928280253819288959e+01,3.147624608598577065e-06,3.518415765987528943e+01,9.929943701729158079e+01
-1.172190476190476113e-04,-3.537362637362637607e-05,1.151684981684981583e-04,4.057622056101910601e+01,3.147018705868901313e-06,3.518130964297157703e+01,9.751688849679861448e+01
-1.042666666666666622e-04,-1.992307692307692597e-05,1.477875457875457731e-04,4.185578361548648019e+01,3.146390812400186837e-06,3.517830782619640928e+01,9.570979362856286343e+01
-9.390476190476189757e-05,-1.676068376068376296e-05,1.683626373626373300e-04,4.312164673493239775e+01,3.145741526449594798e-06,3.517515457391838396e+01,9.387976846018770516e+01
-8.174945054945053746e-05,-6.731379731379734927e-06,1.312271062271062221e-04,4.437397866075563257e+01,3.145071466294986644e-06,3.517185249172469241e+01,9.202848527919232424e+01
-6.600732600732600000e-05,-8.719169719169721946e-06,1.538095238095237819e-04,4.561296163205967247e+01,3.144381269684156182e-06,3.516840442520295085e+01,9.015767167943621985e+01
-5.185934065934064043e-05,-9.622710622710625906e-06,1.191831501831501505e-04,4.683879116146431443e+01,3.143671593266220173e-06,3.516481345848071527e+01,8.826910956864742275e+01
-3.731282051282049995e-05,4.517704517704145916e-08,1.457802197802197702e-04,4.805167579725085858e+01,3.142943112005621034e-06,3.516108291252400875e+01,8.636463411773229382e+01
-2.127179487179485986e-05,-2.665445665445669224e-06,1.247032967032966856e-04,4.925183687202958538e+01,3.142196518579254950e-06,3.515721634319607602e+01,8.444613265259458501e+01
-7.123809523809509612e-06,2.665445665445661601e-06,1.402600732600732623e-04,5.043950823811972839e+01,3.141432522757252249e-06,3.515321753907794999e+01,8.251554348925469640e+01
-1.444688644688630592e-06,2.213675213675209620e-06,1.337362637362636986e-04,5.161493598985215669e+01,3.140651850767930542e-06,3.514909051905247850e+01,8.057485471310077685e+01
1.310183150183151731e-05,-1.581196581196584895e-06,1.683626373626373300e-04,5.277837817301181644e+01,3.139855244647480097e-06,3.514483952965399993e+01,7.862610290317915940e+01
1.987692307692308938e-05,-8.719169719169721946e-06,1.673589743589743285e-04,5.393010448165286164e+01,3.139043461574933285e-06,3.514046904218568557e+01,7.667137180246024286e+01
2.565567765567767019e-05,-1.441147741147741435e-05,1.377509157509157315e-04,5.507039594252866976e+01,3.138217273192996199e-06,3.513598374960700710e+01,7.471279093508911728e+01
2.774798534798536150e-05,1.395970695970695644e-05,1.362454212454212294e-04,5.619954458739158554e+01,3.137377464915352731e-06,3.513138856319410053e+01,7.275253417166756265e+01
3.372600732600734293e-05,4.833943833943829835e-06,1.427692307692307388e-04,5.731785311342699885e+01,3.136524835220997613e-06,3.512668860897566248e+01,7.079281824367652121e+01
3.372600732600734293e-05,-3.478632478632481941e-06,1.161721611721611461e-04,5.842563453210245683e+01,3.135660194936270539e-06,3.512188922394761192e+01,6.883590120818543312e+01
3.233113553113554196e-05,6.912087912087907249e-06,1.553150183150183111e-04,5.952321180671584955e+01,3.134784366505168622e-06,3.511699595206965796e+01,6.688408086405503639e+01
3.820952380952381800e-05,1.852258852258848460e-06,7.401831501831500392e-05,6.061091747894487014e+01,3.133898183248607185e-06,3.511201454004733336e+01,6.493969312088314894e+01
4.020219780219781068e-05,1.992307692307691919e-05,1.287179487179486914e-04,6.168909328470640219e+01,3.133002488613258242e-06,3.510695093290312485e+01,6.300511032198772909e+01
4.119853479853481041e-05,1.296581196581196124e-05,1.006153846153845966e-04,6.275808975964601899e+01,3.132098135410640891e-06,3.510181126934053708e+01,6.108273952277090046e+01
4.508424908424910055e-05,1.170085470085469570e-05,1.131611721611721418e-04,6.381826583458853719e+01,3.131185985047106536e-06,3.509660187690521838e+01,5.917502072585109829e+01
4.767472527472528494e-05,7.454212454212449625e-06,1.071391941391941331e-04,6.486998842128912202e+01,3.130266906745438053e-06,3.509132926694732646e+01,5.728442507439207532e+01
4.129816849816851242e-05,7.634920634920630417e-06,9.710256410256407793e-05,6.591363198883500729e+01,3.129341776758693524e-06,3.508600012938960333e+01,5.541345300510269567e+01
3.970402930402931421e-05,5.466422466422462607e-06,7.251282051282048819e-05,6.694957813105857269e+01,3.128411477577041199e-06,3.508062132730582050e+01,5.356463236241748405e+01
3.890695970695972526e-05,4.472527472527469098e-06,8.405494505494503197e-05,6.797821512532829047e+01,3.127476897128242129e-06,3.507519989131427707e+01,5.174051647541501353e+01
3.302857142857144244e-05,6.279609279609275324e-06,1.016190476190475980e-04,6.899993748309653085e+01,3.126538927972511047e-06,3.506974301379143810e+01,4.994368219905796735e+01
3.213186813186814472e-05,7.634920634920630417e-06,9.609890109890107648e-05,7.001514549258914144e+01,3.125598466492469962e-06,3.506425804291080794e+01,4.817672792138857574e+01
3.641611721611723610e-05,5.918192918192913740e-06,5.444688644688642820e-05,7.102424475403257986e+01,3.124656412078887762e-06,3.505875247651227511e+01,4.644227153833823252e+01
3.213186813186814472e-05,6.550671550671546512e-06,9.158241758241755640e-05,7.202764570781828013e+01,3.123713666312953761e-06,3.505323395580750656e+01,4.474294839784781885e+01
3.930549450549451974e-05,5.556776556776553003e-06,4.441025641025639337e-05,7.302576315601790213e+01,3.122771132145800926e-06,3.504771025892690517e+01,4.308140921502692322e+01
3.731282051282052705e-05,1.377899877899877396e-05,3.487545787545785926e-05,7.401901577766265916e+01,3.121829713076000045e-06,3.504218929431397811e+01,4.146031796011452997e+01
4.199560439560440613e-05,1.639926739926739460e-05,5.494871794871792893e-05,7.500782563821437066e+01,3.120890312325767663e-06,3.503667909397292846e+01,3.988234972102427633e+01
4.159706959706961166e-05,1.350793650793650362e-05,8.004029304029301262e-05,7.599261769365760699e+01,3.119953832016619222e-06,3.503118780657558773e+01,3.835018854229586793e+01
4.687765567765569600e-05,2.001343101343101044e-05,4.591575091575090232e-05,7.697381928965081954e+01,3.119021172345195416e-06,3.502572369043387113e+01,3.686652524229100436e+01
4.647912087912089475e-05,1.630891330891330335e-05,6.649084249084247949e-05,7.795185965617922363e+01,3.118093230760002490e-06,3.502029510634398690e+01,3.543405521050266316e+01
4.388864468864470358e-05,1.513431013431012905e-05,2.232967032967031403e-05,7.892716939815993271e+01,3.117170901139803416e-06,3.501491051030892265e+01,3.405547618686671285e+01
3.781098901098902353e-05,9.713064713064708679e-06,4.641758241758240305e-05,7.990017998245220099e+01,3.116255072974390913e-06,3.500957844614567449e+01,3.273348602498509052e+01
3.701391941391942781e-05,2.109768009768009180e-05,5.093406593406591635e-05,8.087132322173299315e+01,3.115346630548473750e-06,3.500430753798385552e+01,3.147078044119384188e+01
3.043809523809525128e-05,1.667032967032966833e-05,1.028571428571427121e-05,8.184103075570098440e+01,3.114446452129410262e-06,3.499910648266258306e+01,3.027005075141748591e+01
1.579194139194140540e-05,4.111111111111106666e-06,5.745787545787544611e-05,8.280973353007863125e+01,3.113555409159520509e-06,3.499398404203232360e+01,2.913398159778063601e+01
1.544322344322358221e-06,1.152014652014651660e-05,1.430036630036628548e-05,8.377786127388202431e+01,3.112674365453698737e-06,3.498894903516865185e+01,2.806524866694778453e+01
-2.764835164835163577e-05,5.873015873015835508e-07,1.078754578754577363e-05,8.474584197543623532e+01,3.111804176403040630e-06,3.498401033050514286e+01,2.706651640218635890e+01
-4.946813186813185328e-05,-4.969474969475005663e-07,-3.086446886446887126e-05,8.571410135761146876e+01,3.110945688185217594e-06,3.497917683789223986e+01,2.614043571114865827e+01
-7.437655677655676521e-05,-2.001343101343101721e-05,3.437362637362635854e-05,8.668306235276560301e+01,3.110099736982290535e-06,3.497445750058944469e+01,2.528964167138810026e+01
-9.340659340659340109e-05,-6.369963369963373343e-06,-1.279853479853481127e-05,8.765314457787096103e+01,3.109267148206681412e-06,3.496986128719803588e+01,2.451675123561980740e+01
-9.898608058608056434e-05,-4.833943833943836611e-06,5.846153846153844078e-05,8.862476381031547135e+01,3.108448735736003480e-06,3.496539718354154047e+01,2.382436093875245575e+01
-9.978315018315016684e-05,-1.414041514041514232e-05,5.545054945054943643e-05,8.959833146486056421e+01,3.107645301157413462e-06,3.496107418450151982e+01,2.321504460871157605e+01
-9.828864468864467741e-05,-1.477289377289377424e-05,7.351648351648350319e-05,9.057425407224756952e+01,3.106857633022219585e-06,3.495690128581568956e+01,2.269135108308765680e+01
-9.789010989010988293e-05,-1.983272283272283473e-05,1.146666666666666575e-04,9.155293275993690827e+01,3.106086506111362142e-06,3.495288747584624645e+01,2.225580193362563364e+01
-9.579780219780218147e-05,-1.043589743589743862e-05,1.231978021978021834e-04,9.253476273547194353e+01,3.105332680712479336e-06,3.494904172732556447e+01,2.191088920059047140e+01
-9.001904761904761421e-05,6.369963369963365720e-06,9.258608058608057141e-05,9.352013277295328919e+01,3.104596901909185659e-06,3.494537298908682033e+01,2.165907313902148346e+01
-8.443956043956043741e-05,8.357753357753353585e-06,9.158241758241755640e-05,9.450942470311333921e+01,3.103879898883223461e-06,3.494189017778718664e+01,2.150277997889253356e+01
-7.397802197802197074e-05,1.233333333333332762e-05,1.131611721611721418e-04,9.550301290747621863e+01,3.103182384230115390e-06,3.493860216963089016e+01,2.144439970118816419e+01
-6.580805860805859599e-05,1.947130647130646637e-05,1.407619047619047630e-04,9.650126381708967926e+01,3.102505053288934328e-06,3.493551779209985853e+01,2.148628383188694713e+01
-5.973040293040291594e-05,3.501221001221000432e-05,1.412637362637362366e-04,9.750453541631100052e+01,3.101848583486830327e-06,3.493264581569937377e+01,2.163074325584434021e+01
-5.036483516483515100e-05,6.550671550671546512e-06,1.372490842490842308e-04,9.851317675212979452e+01,3.101213633698860479e-06,3.492999494572627128e+01,2.188004605254639401e+01
-3.880732600732599615e-05,1.974236874236874010e-05,1.332344322344322250e-04,9.952752744950505814e+01,3.100600843623774754e-06,3.492757381406718054e+01,2.223641535569215222e+01
-2.655238095238093743e-05,3.297924297924293949e-06,1.492930402930402753e-04,1.005479172331923223e+02,3.100010833176258855e-06,3.492539097103428247e+01,2.270202723854919924e+01
-1.449670329670328440e-05,1.197191697191696773e-05,1.437728937728937402e-04,1.015746654565326850e+02,3.099444201896254096e-06,3.492345487724600162e+01,2.327900862700429840e+01
1.120879120879122324e-05,4.468009768009767246e-05,1.497948717948717489e-04,1.026080806376720460e+02,3.098901528375849826e-06,3.492177389556012912e+01,2.396943524221571309e+01
3.263003663003664797e-05,2.308547008547008221e-05,1.407619047619047630e-04,1.036484600036740602e+02,3.098383369704301516e-06,3.492035628306659589e+01,2.477532957474491582e+01
5.733919413919415589e-05,2.299511599511599097e-05,1.417655677655677373e-04,1.046960890429860029e+02,3.097890260931671707e-06,3.491921018314732805e+01,2.569865889203183684e+01
6.451282051282052413e-05,4.020757020757017117e-06,1.367472527472527301e-04,1.057512410667106906e+02,3.097422714551605858e-06,3.491834361761042516e+01,2.674133328104275265e+01
8.443956043956046451e-05,-5.647130647130651022e-06,1.312271062271062221e-04,1.068141767791338452e+02,3.096981220003704724e-06,3.491776447890580926e+01,2.790520372790183501e+01
9.201172161172162722e-05,1.269474969474968921e-05,1.287179487179486914e-04,1.078851438579478952e+02,3.096566243195957020e-06,3.491748052242948575e+01,2.919206023627767976e+01
1.021743589743589879e-04,1.341758241758241407e-05,1.206886446886446662e-04,1.089643765446097348e+02,3.096178226047685518e-06,3.491749935892349299e+01,3.060362998628150422e+01
1.089494505494505752e-04,1.477289377289376747e-05,1.191831501831501505e-04,1.100520952452596504e+02,3.095817586053430542e-06,3.491782844697849697e+01,3.214157553558850822e+01
1.136322344322344475e-04,2.579609279609279239e-05,1.091465201465201224e-04,1.111485061426261467e+02,3.095484715868164705e-06,3.491847508564590896e+01,3.380749306446337243e+01
1.169201465201465459e-04,1.956166056166055422e-05,1.071391941391941331e-04,1.122538008193280916e+02,3.095179982914243364e-06,3.491944640716623383e+01,3.560291066634414392e+01
1.185142857142857238e-04,1.567643467643467143e-05,9.057875457875456851e-05,1.133681558929836513e+02,3.094903729010455014e-06,3.492074936982051270e+01,3.752928668559148662e+01
1.185142857142857238e-04,7.996336996336992001e-06,9.358974358974357286e-05,1.144917326635224555e+02,3.094656270023513814e-06,3.492239075091122658e+01,3.958800810397975312e+01
1.196102564102564188e-04,1.251404151404151011e-05,7.502197802197800537e-05,1.156246767730918066e+02,3.094437895542346621e-06,3.492437713987929726e+01,4.178038897746475300e+01
1.181157509157509293e-04,9.622710622710619130e-06,7.803296703296702327e-05,1.167671178789367445e+02,3.094248868575451506e-06,3.492671493156333895e+01,4.410766892472041434e+01
1.172190476190476384e-04,2.398901098901098447e-05,5.695604395604393860e-05,1.179191693396261940e+02,3.094089425271644968e-06,3.492941031960764064e+01,4.657101166889998467e+01
1.164219780219780494e-04,1.097802197802197422e-05,6.097069597069595118e-05,1.190809279149850255e+02,3.093959774664461692e-06,3.493246929002468448e+01,4.917150363402542013e+01
1.155252747252747314e-04,1.657997557997557369e-05,5.695604395604393860e-05,1.202524734800867634e+02,3.093860098440441915e-06,3.493589761491838885e+01,5.191015259737552157e+01
1.147282051282051425e-04,1.712210012210011776e-05,4.591575091575090232e-05,1.214338687536431536e+02,3.093790550731543130e-06,3.493970084637371798e+01,5.478788639918419534e+01
1.103443223443223626e-04,1.901953601953601354e-05,4.441025641025639337e-05,1.226251590411255989e+02,3.093751257931888740e-06,3.494388431051842758e+01,5.780555171092444056e+01
1.073553113553113702e-04,2.019413919413918954e-05,2.132600732600731258e-05,1.238263719929342130e+02,3.093742318539022233e-06,3.494845310176244624e+01,6.096391286339936499e+01
1.053626373626373843e-04,1.025518925518925105e-05,3.788644688644687717e-05,1.250375173779238764e+02,3.093763803019836680e-06,3.495341207722015753e+01,6.426365073581195020e+01
1.022739926739926899e-04,1.124908424908424456e-05,2.935531135531134112e-05,1.262585868725832086e+02,3.093815753701324009e-06,3.495876585132099734e+01,6.770536170693657141e+01
9.858754578754579698e-05,4.201465201465197909e-06,5.267399267399253796e-06,1.274895538661494072e+02,3.093898184686252873e-06,3.496451879061309143e+01,7.128955666946437475e+01
9.330695970695972619e-05,-2.936507936507939988e-06,1.379853479853478476e-05,1.287303732819316338e+02,3.094011081793875072e-06,3.497067500876509172e+01,7.501666010853942623e+01
8.673113553113554288e-05,9.080586080586076754e-06,-9.787545787545800147e-06,1.299809814151018372e+02,3.094154402525744810e-06,3.497723836177072343e+01,7.888700924544951931e+01
8.184908424908426657e-05,1.296581196581196124e-05,8.278388278388264923e-06,1.312412957871984247e+02,3.094328076056677890e-06,3.498421244336058322e+01,8.290085324738298311e+01
7.148717948717950191e-05,5.014652014652010627e-06,-3.086446886446887126e-05,1.325112150175768591e+02,3.094532003250904205e-06,3.499160058062557965e+01,8.705835250410321180e+01
6.222124542124543220e-05,-5.285714285714288591e-06,-5.772893772893785875e-06,1.337906187120257471e+02,3.094766056703403375e-06,3.499940582985605175e+01,9.135957797234637212e+01
5.435018315018317025e-05,-5.014652014652018250e-06,-1.781684981684983208e-05,1.350793673687552428e+02,3.095030080806421390e-06,3.500763097260061585e+01,9.580451058867224390e+01
4.269304029304030662e-05,1.400488400488396691e-06,-2.333699633699635022e-05,1.363773023019488448e+02,3.095323891841114502e-06,3.501627851194842833e+01,1.003930407514629479e+02
2.904322344322346047e-05,-1.405006105006105277e-05,-3.738827838827840102e-05,1.376842455830578444e+02,3.095647278094266120e-06,3.502535066903847394e+01,1.051249678726868808e+02
2.007619047619049000e-05,-1.490842490842494287e-06,-2.885714285714286836e-05,1.390000000000000284e+02,3.096000000000000936e-06,3.503484937979916936e+01,1.100000000000000284e+02
5.131135531135545728e-06,-1.395970695970696322e-05,-1.282197802197802220e-04,1.403243490344142401e+02,3.096381790306375547e-06,3.504477629192154353e+01,1.150177535096873385e+02
-9.465201465201324214e-07,-1.405006105006105277e-05,-1.422710622710622694e-04,1.416570568571026740e+02,3.096792354266732522e-06,3.505513276206879425e+01,1.201777528708914673e+02
1.942857142857156927e-06,-1.179120879120879541e-05,-2.270805860805860817e-04,1.429978683417816114e+02,3.097231369855647634e-06,3.506591985332516259e+01,1.254794304815184631e+02
8.120146520146533906e-06,-8.086691086691090021e-06,-2.787692307692307648e-04,1.443465090972451605e+02,3.097698488009326282e-06,3.507713833288642036e+01,1.309221265761398172e+02
1.937875457875459290e-05,3.207570207570203553e-06,-3.259413919413919414e-04,1.457026855180292273e+02,3.098193332890219975e-06,3.508878866999452839e+01,1.365050892061625234e+02
3.203223443223444271e-05,-1.761904761904765475e-06,-3.038608058608059095e-04,1.470660848536521428e+02,3.098715502175682877e-06,3.510087103411836296e+01,1.422274742924618636e+02
3.910622710622712250e-05,1.269474969474968921e-05,-3.194175824175824320e-04,1.484363752964877960e+02,3.099264567370400755e-06,3.511338529338248549e+01,1.480883457506232617e+02
4.259340659340661139e-05,1.025518925518925105e-05,-3.339706959706960072e-04,1.498132060883138479e+02,3.099840074142347963e-06,3.512633101324571783e+01,1.540866756888706846e+02
5.036483516483518489e-05,8.086691086691083244e-06,-2.697362637362637518e-04,1.511962076455640727e+02,3.100441542681997600e-06,3.513970745543068830e+01,1.602213446786960844e+02
5.096263736263737659e-05,9.170940170940166303e-06,-2.852930402930402743e-04,1.525849917032922463e+02,3.101068468084459153e-06,3.515351357710594016e+01,1.664911420981478045e+02
5.484835164835166673e-05,8.628815628815623927e-06,-2.622087912087912409e-04,1.539791514778448231e+02,3.101720320754253941e-06,3.516774803032130592e+01,1.728947665476682971e+02
5.704029304029305665e-05,1.115873015873015332e-05,-2.692344322344321968e-04,1.553782618482208875e+02,3.102396546832367953e-06,3.518240916169744281e+01,1.794308263383107942e+02
5.624322344322346093e-05,1.395970695970695644e-05,-2.687326007326007503e-04,1.567818795560810088e+02,3.103096568645211073e-06,3.519749501237011913e+01,1.860978400521067329e+02
5.753846153846155312e-05,1.459218559218558837e-05,-2.476556776556776657e-04,1.581895434243530474e+02,3.103819785175126520e-06,3.521300331818952145e+01,1.928942371742843704e+02
5.325421245421246852e-05,2.832600732600732010e-05,-2.441428571428571606e-04,1.596007745943643386e+02,3.104565572552026132e-06,3.522893151017469648e+01,1.998183587969900543e+02
5.016556776556778087e-05,2.416971916971916357e-05,-2.506666666666666700e-04,1.610150767814145922e+02,3.105333284565743657e-06,3.524527671522304217e+01,2.068684583940878952e+02
4.956776556776558239e-05,2.236263736263735565e-05,-2.391245421245421262e-04,1.624319365486886113e+02,3.106122253198654998e-06,3.526203575707446447e+01,2.140427026665672372e+02
4.877069597069598667e-05,1.901953601953601354e-05,-2.300915750915750861e-04,1.638508235993888889e+02,3.106931789178128772e-06,3.527920515752966679e+01,2.213391724580133655e+02
4.498461538461539854e-05,1.929059829059828388e-05,-2.090146520146520285e-04,1.652711910869554117e+02,3.107761182548306161e-06,3.529678113792175509e+01,2.287558637395446226e+02
4.588131868131869627e-05,1.477289377289376747e-05,-2.295897435897435853e-04,1.666924759432208702e+02,3.108609703260734445e-06,3.531475962084014952e+01,2.362906886635588819e+02
4.717655677655678846e-05,1.215262515262514852e-05,-1.999816849816849883e-04,1.681140992243357744e+02,3.109476601783339219e-06,3.533313623210559484e+01,2.439414766855657035e+02
2.954139194139195694e-05,3.162393162393124686e-07,-1.834212454212454102e-04,1.695354664742799571e+02,3.110361109727213956e-06,3.535190630299477732e+01,2.517059757533333197e+02
3.143443223443225101e-05,1.034554334554334060e-05,-2.431391941391941591e-04,1.709559681057627074e+02,3.111262440490663619e-06,3.537106487271288557e+01,2.595818535625098775e+02
2.675164835164836515e-05,1.721245421245420901e-05,-1.949633699633699811e-04,1.723749797982956409e+02,3.112179789919981848e-06,3.539060669111225366e+01,2.675666988778297650e+02
2.087326007326008572e-05,1.269474969474968921e-05,-2.265787545787545810e-04,1.737918629132096271e+02,3.113112336986342509e-06,3.541052622165485531e+01,2.756580229189543729e+02
1.907985347985349366e-05,1.910989010989010478e-05,-2.295897435897435853e-04,1.752059649253690736e+02,3.114059244478261838e-06,3.543081764461661010e+01,2.838532608099402523e+02
2.047472527472529125e-05,1.910989010989010478e-05,-1.849267399267399395e-04,1.766166198713216033e+02,3.115019659708988690e-06,3.545147486053053143e+01,2.921497730912768134e+02
2.087326007326008572e-05,1.477289377289376747e-05,-2.034945054945055205e-04,1.780231488136062410e+02,3.115992715238244368e-06,3.547249149386644262e+01,3.005448472933769040e+02
1.768498168498169946e-05,1.061660561660561264e-05,-1.839230769230769380e-04,1.794248603209294401e+02,3.116977529607650517e-06,3.549386089694391444e+01,3.090356995703531879e+02
1.778461538461539808e-05,1.296581196581196124e-05,-1.939597069597069796e-04,1.808210509638988697e+02,3.117973208089227143e-06,3.551557615407560320e+01,3.176194763928584734e+02
1.539340659340660754e-05,-3.117216117216120780e-06,-1.613406593406593512e-04,1.822110058259957839e+02,3.118978843446292057e-06,3.553763008593725914e+01,3.262932562987220422e+02
1.459633699633701182e-05,1.657997557997557369e-05,-1.799084249084249322e-04,1.835939990294453139e+02,3.119993516706112893e-06,3.556001525416132836e+01,3.350540517000526961e+02
1.170695970695972141e-05,2.118803418803418304e-05,-1.538131868131868132e-04,1.849692942756373952e+02,3.121016297943614177e-06,3.558272396614987798e+01,3.438988107454467809e+02
3.337728937728951974e-06,1.920024420024419603e-05,-1.477912087912088045e-04,1.863361453997295882e+02,3.122046247075480878e-06,3.560574828010330606e+01,3.528244192358739610e+02
-4.234432234432220052e-06,2.570573870573870115e-05,-1.297252747252747513e-04,1.876937969390517935e+02,3.123082414663936776e-06,3.562908001026054450e+01,3.618277025927801560e+02
-1.738608058608057312e-05,5.466422466422462607e-06,-1.211941391941392119e-04,1.890414847149210971e+02,3.124123842729519156e-06,3.565271073234637811e+01,3.709054278768943504e+02
-3.013919413919412832e-05,1.188156288156287818e-05,-1.743882783882783971e-04,1.903784364274577285e+02,3.125169565572115469e-06,3.567663178922153122e+01,3.800543058561829071e+02
-4.598095238095236439e-05,-3.568986568986572761e-06,-2.326007326007325897e-04,1.917038722629820597e+02,3.126218610599558069e-06,3.570083429673078257e+01,3.892709931213552750e+02
-5.245714285714284569e-05,-4.743589743589747062e-06,-2.742527472527472583e-04,1.930170055135593259e+02,3.127269999163041792e-06,3.572530914974419858e+01,3.985520942472779780e+02
-4.608058608058607317e-05,-7.680097680097716485e-07,-2.757582417582417605e-04,1.943170432082432342e+02,3.128322747398635949e-06,3.575004702838660364e+01,4.078941639986197742e+02
-5.723956043956042678e-05,9.170940170940166303e-06,-2.732490842490842568e-04,1.956031867555645931e+02,3.129375867074146588e-06,3.577503840445005068e+01,4.172937095780083609e+02
-5.235750915750914369e-05,9.622710622710619130e-06,-2.757582417582417605e-04,1.968746325967879898e+02,3.130428366440596373e-06,3.580027354798384209e+01,4.267471929149384664e+02
-6.281904761904760358e-05,-5.014652014652018250e-06,-2.722454212454212554e-04,1.981305728694571542e+02,3.131479251087560565e-06,3.582574253405694265e+01,4.362510329936446283e+02
-6.600732600732600000e-05,-2.484737484737488432e-06,-2.682307692307691954e-04,1.993701960807346438e+02,3.132527524801616706e-06,3.585143524968670903e+01,4.458016082181119373e+02
-5.863443223443222098e-05,-2.484737484737488432e-06,-2.652197802197801910e-04,2.005926877900288616e+02,3.133572190427147357e-06,3.587734140092855029e+01,4.553952588123602823e+02
-6.301831501831500759e-05,-7.725274725274728437e-06,-2.602014652014652380e-04,2.017972313003925819e+02,3.134612250728748388e-06,3.590345052012031601e+01,4.650282892541196134e+02
-5.644249084249083106e-05,-1.088766788766789145e-05,-2.531758241758241736e-04,2.029830083581680924e+02,3.135646709254474979e-06,3.592975197327558590e+01,4.746969707399699132e+02
-6.271941391941390157e-05,-1.133943833943834258e-05,-2.486593406593406671e-04,2.041491998603386264e+02,3.136674571199166827e-06,3.595623496761947280e+01,4.843975436800047873e+02
-5.405128205128204391e-05,-1.540537240537240786e-05,-2.401282051282051277e-04,2.052949865690442550e+02,3.137694844267098687e-06,3.598288855926080032e+01,4.941262202200400679e+02
-4.916923076923075404e-05,-1.314652014652014881e-05,-2.351098901098901204e-04,2.064195498327025291e+02,3.138706539533193917e-06,3.600970166099419600e+01,5.038791867893713174e+02
-5.425054945054944114e-05,-1.477289377289377424e-05,-2.295897435897435853e-04,2.075220723131724583e+02,3.139708672302037862e-06,3.603666305022546368e+01,5.136526066720617791e+02
-5.106227106227105149e-05,-3.659340659340662733e-06,-2.260769230769230803e-04,2.086017387183874234e+02,3.140700262963943561e-06,3.606376137701375484e+01,5.234426225997143547e+02
-4.827252747252746309e-05,-1.052625152625152987e-05,-2.190512820512820701e-04,2.096577365398765380e+02,3.141680337847316766e-06,3.609098517222373204e+01,5.332453593636690812e+02
-4.060073260073259160e-05,-1.929059829059829066e-05,-2.135311355311355350e-04,2.106892567945869246e+02,3.142647930066546510e-06,3.611832285578086754e+01,5.430569264445506406e+02
-4.608058608058607317e-05,-1.585714285714286069e-05,-2.060036630036629970e-04,2.116954947704099936e+02,3.143602080364713527e-06,3.614576274502300635e+01,5.528734206570632068e+02
-4.219487179487178304e-05,-2.001343101343101721e-05,-2.065054945054944978e-04,2.126756507748106060e+02,3.144541837950342339e-06,3.617329306314123016e+01,5.626909288079349380e+02
-3.761172161172159919e-05,-8.177045177045179570e-06,-1.964688644688644562e-04,2.136289308859510356e+02,3.145466261327465588e-06,3.620090194770283176e+01,5.725055303648806557e+02
-3.820952380952379767e-05,-1.432112332112332481e-05,-1.959670329670329825e-04,2.145545477056940911e+02,3.146374419118286582e-06,3.622857745924942208e+01,5.823133001344619970e+02
-3.880732600732599615e-05,-1.341758241758242085e-05,-1.743882783882783971e-04,2.154517211138681603e+02,3.147265390877693367e-06,3.625630758996278047e+01,5.921103109466985188e+02
-3.741245421245420195e-05,-8.357753357753362056e-06,-1.859304029304029409e-04,2.163196790231683906e+02,3.148138267898912430e-06,3.628408027239144218e+01,6.018926363442876664e+02
-4.139780219780218054e-05,-1.956166056166056100e-05,-1.814139194139194073e-04,2.171576581340659118e+02,3.148992154009609127e-06,3.631188338823040596e+01,6.116563532742815141e+02
-5.166007326007324320e-05,-1.179120879120879541e-05,-1.809120879120879066e-04,2.179649046890932595e+02,3.149826166357704288e-06,3.633970477714687064e+01,6.213975447800671645e+02
-4.618021978021976840e-05,-8.267399267399270813e-06,-1.733846153846153686e-04,2.187406752258709162e+02,3.150639436186238265e-06,3.636753224564454001e+01,6.311123026914940510e+02
-4.408791208791207371e-05,-1.296581196581196971e-05,-1.713772893772893928e-04,2.194842373282334336e+02,3.151431109596591241e-06,3.639535357595894993e+01,6.407967303109987824e+02
-4.109890109890108808e-05,-8.448107448107451605e-06,-1.703736263736263913e-04,2.201948703748197147e+02,3.152200348299376239e-06,3.642315653497658445e+01,6.504469450935689565e+02
-4.418754578754577572e-05,-5.014652014652018250e-06,-1.693699633699633899e-04,2.208718662844791822e+02,3.152946330352371266e-06,3.645092888317024205e+01,6.600590813184048784e+02
-4.060073260073259160e-05,-1.097802197802198100e-05,-1.568241758241758176e-04,2.215145302578543181e+02,3.153668250884807864e-06,3.647865838354303492e+01,6.696292927501367558e+02
-3.581831501831500374e-05,-2.755799755799759196e-06,-1.578278388278388190e-04,2.221221815144925529e+02,3.154365322807400719e-06,3.650633281057382362e+01,6.791537552874608537e+02
-4.050109890109888960e-05,-2.394383394383397612e-06,-1.487948717948717788e-04,2.226941540248433569e+02,3.155036777507483030e-06,3.653393995915645576e+01,6.886286695970781011e+02
-3.641611721611720900e-05,-4.020757020757023894e-06,-1.282197802197802220e-04,2.232297972364955001e+02,3.155681865528638650e-06,3.656146765352529115e+01,6.980502637308169369e+02
-3.402490842490840829e-05,-8.357753357753362056e-06,-1.437765567765567716e-04,2.237284767940118115e+02,3.156299857234234650e-06,3.658890375615978030e+01,7.074147957238496929e+02
-3.013919413919412832e-05,-5.873015873015909623e-07,-1.076446886446886516e-04,2.241895752517168319e+02,3.156890043454256349e-06,3.661623617666045050e+01,7.167185561719144289e+02
-3.033846153846152556e-05,5.285714285714281815e-06,-1.156739926739926768e-04,2.246124927787981562e+02,3.157451736114902657e-06,3.664345288058903805e+01,7.259578707854793720e+02
-3.123516483516481989e-05,4.201465201465197909e-06,-9.610256410256410784e-05,2.249966478560832002e+02,3.157984268850363252e-06,3.667054189826544786e+01,7.351291029188056427e+02
-3.502124542124540802e-05,-3.840048840048843949e-06,-1.071428571428571509e-04,2.253414779638542313e+02,3.158486997596243506e-06,3.669749133351409398e+01,7.442286560718773671e+02
-3.532014652014650726e-05,4.517704517704145916e-08,-1.106556776556776560e-04,2.256464402600725805e+02,3.158959301164125145e-06,3.672428937235242330e+01,7.532529763632011282e+02
-3.571868131868130173e-05,-5.918192918192921363e-06,-5.746153846153847068e-05,2.259110122483799898e+02,3.159400581796757807e-06,3.675092429161446717e+01,7.621985549714917170e+02
-3.512087912087911003e-05,-1.852258852258855871e-06,-5.495238095238096028e-05,2.261346924352574490e+02,3.159810265703376667e-06,3.677738446750212375e+01,7.710619305442926361e+02
-4.189597069597067702e-05,-3.207570207570211176e-06,-5.445054945054945956e-05,2.263170009757205037e+02,3.160187803574695074e-06,3.680365838405733570e+01,7.798396915716040212e+02
-4.119853479853478331e-05,-3.840048840048843949e-06,-5.294505494505495060e-05,2.264574803069381232e+02,3.160532671077115249e-06,3.682973464154780885e+01,7.885284787226208891e+02
-3.332747252747251458e-05,4.517704517704145916e-08,-4.341025641025642327e-05,2.265556957691691196e+02,3.160844369325710631e-06,3.685560196475970685e+01,7.971249871437173624e+02
-3.432380952380951431e-05,2.032967032967029252e-06,-1.982417582417583837e-05,2.266112362134159355e+02,3.161122425335592371e-06,3.688124921119019461e+01,8.056259687158371889e+02
-2.675164835164833805e-05,-1.039072039072042731e-06,6.271062271062257788e-06,2.266237145951991749e+02,3.161366392451230524e-06,3.690666537913321577e+01,8.140282342694985118e+02
-2.555604395604394108e-05,-7.183150183150186907e-06,-2.183150183150184466e-05,2.265927685538736398e+02,3.161575850753388160e-06,3.693183961565181050e+01,8.223286557556381240e+02
-2.376263736263734902e-05,-4.111111111111115137e-06,-5.271062271062284303e-06,2.265180609769000739e+02,3.161750407443286375e-06,3.695676122443045841e+01,8.305241683705762625e+02
-1.848205128205126808e-05,-6.912087912087915719e-06,4.263736263736249805e-06,2.263992805485118538e+02,3.161889697203678772e-06,3.698141967350090908e+01,8.386117726334049394e+02
-2.575531135531134171e-05,-1.581196581196584895e-06,9.282051282051268068e-06,2.262361422822099826e+02,3.161993382536516485e-06,3.700580460283527628e+01,8.465885364141514628e+02
-2.465934065934064675e-05,-7.680097680097716485e-07,3.587912087912086071e-05,2.260283880365409743e+02,3.162061154076913222e-06,3.702990583180012152e+01,8.544515969111132563e+02
-2.316483516483515393e-05,1.355311355311318353e-07,1.754578754578741097e-06,2.257757870136152292e+02,3.162092730883129962e-06,3.705371336646542346e+01,8.621981625757860002e+02
-2.804688644688643363e-05,1.219780219780216111e-06,4.541391941391940160e-05,2.254781362398372551e+02,3.162087860702337042e-06,3.707721740676254285e+01,8.698255149838761326e+02
-2.993992673992672770e-05,5.873015873015835508e-07,6.950183150183148384e-05,2.251352610283284719e+02,3.162046320211911404e-06,3.710040835348531374e+01,8.773310106509085244e+02
-3.073699633699632341e-05,7.680097680097642369e-07,1.011172161172160973e-04,2.247470154225379986e+02,3.161967915236080091e-06,3.712327681512854838e+01,8.847120827910030130e+02
-3.402490842490840829e-05,7.092796092796088888e-06,1.287179487179486914e-04,2.243132826205441575e+02,3.161852480937702057e-06,3.714581361455852715e+01,8.919662430174372503e+02
-2.954139194139192645e-05,6.189255189255184928e-06,8.305128205128204408e-05,2.238339753795661409e+02,3.161699881985036677e-06,3.716800979550988160e+01,8.990910829836554967e+02
-3.163369963369962114e-05,2.484737484737480808e-06,1.016190476190475980e-04,2.233090364002168542e+02,3.161510012693362995e-06,3.718985662890393229e+01,9.060842759634449521e+02
-2.655238095238093743e-05,1.490842490842487087e-06,1.242014652014651849e-04,2.227384386900384641e+02,3.161282797141306566e-06,3.721134561898313819e+01,9.129435783690378230e+02
-2.475897435897434537e-05,6.641025641025636908e-06,9.258608058608057141e-05,2.221221859058827022e+02,3.161018189261808686e-06,3.723246850925681173e+01,9.196668312059618984e+02
-2.645274725274723881e-05,-1.671550671550675079e-06,1.191831501831501505e-04,2.214603126747047384e+02,3.160716172907632099e-06,3.725321728825346668e+01,9.262519614635074277e+02
-2.137142857142855848e-05,6.776556776556738409e-07,1.447765567765567417e-04,2.207528848923592477e+02,3.160376761891386276e-06,3.727358419507507392e+01,9.326969834397341401e+02
-2.535677655677654385e-05,1.671550671550667668e-06,9.057875457875456851e-05,2.200000000000000000e+02,3.160000000000000662e-06,3.729356172474896880e+01,9.390000000000000000e+02
-2.007619047619046290e-05,4.382173382173377854e-06,1.076410256410256203e-04,2.192017872377012964e+02,3.159585960983676826e-06,3.731314263337296211e+01,9.451592037680413796e+02
-2.186959706959705496e-05,2.213675213675209620e-06,1.036263736263736009e-04,2.183584078749332491e+02,3.159134748519327134e-06,3.733231994304992440e+01,9.511728782487003855e+02
-2.256703296703295206e-05,9.532356532356527887e-06,1.533076923076922811e-04,2.174700554175423690e+02,3.158646496148512218e-06,3.735108694660765138e+01,9.570393988814412296e+02
-2.117216117216116125e-05,-2.846153846153849592e-06,9.910989010989009439e-05,2.165369557909007483e+02,3.158121367189983132e-06,3.736943721210064240e+01,9.627572340238696142e+02
-2.017582417582416491e-05,-4.020757020757023894e-06,9.609890109890107648e-05,2.155593674989112003e+02,3.157559554626873503e-06,3.738736458709009014e+01,9.683249458645080949e+02
-1.220512820512819078e-05,-3.930402930402934345e-06,1.136630036630036425e-04,2.145375817585650395e+02,3.156961280968671701e-06,3.740486320269888409e+01,9.737411912641604204e+02
-9.614652014652001313e-06,-4.562881562881566270e-06,1.287179487179486914e-04,2.134719226097718376e+02,3.156326798088088223e-06,3.742192747743857950e+01,9.790047225252408225e+02
-1.310183150183148851e-05,-6.731379731379734927e-06,1.342380952380951994e-04,2.123627470001991071e+02,3.155656387032985156e-06,3.743855212080537598e+01,9.841143880885148292e+02
-4.832234432234418535e-06,-2.394383394383397612e-06,1.226959706959706827e-04,2.112104448448722280e+02,3.154950357813520184e-06,3.745473213664240575e+01,9.890691331567496718e+02
-8.518681318681304660e-06,-2.936507936507939988e-06,7.150915750915748674e-05,2.100154390603124170e+02,3.154209049164724526e-06,3.747046282626592983e+01,9.938680002448429605e+02
-8.419047619047604348e-06,8.583638583638546330e-07,1.538095238095237819e-04,2.087781855729996892e+02,3.153432828284701567e-06,3.748573979135308321e+01,9.985101296560527544e+02
-1.170695970695969261e-05,3.297924297924293949e-06,1.141648351648351432e-04,2.074991733019748779e+02,3.152622090548726135e-06,3.750055893658910833e+01,1.002994759884014684e+03
-6.127472527472513270e-06,3.026862026862023185e-06,1.116556776556776261e-04,2.061789241154098420e+02,3.151777259199453634e-06,3.751491647207225810e+01,1.007321227940291806e+03
-9.315750915750902072e-06,1.400488400488396691e-06,1.091465201465201224e-04,2.048179927609947413e+02,3.150898785013571074e-06,3.752880891547464870e+01,1.011488969607274953e+03
-7.920879120879106177e-06,-3.568986568986572761e-06,7.552380952380950609e-05,2.034169667700130049e+02,3.149987145945153851e-06,3.754223309395766961e+01,1.015497519616293857e+03
-1.359999999999998668e-05,9.487179487179449231e-07,1.186813186813186633e-04,2.019764663349932050e+02,3.149042846746066660e-06,3.755518614584064352e+01,1.019346511750884019e+03
-6.426373626373612512e-06,2.304029304029300016e-06,7.502197802197800537e-05,2.004971441608469434e+02,3.148066418563749900e-06,3.756766552202185494e+01,1.023035678875197050e+03
-8.219780219780205418e-06,4.111111111111106666e-06,8.254945054945054335e-05,1.989796852894237418e+02,3.147058418516755369e-06,3.757966898715093151e+01,1.026564852887613824e+03
-9.116483516483503142e-06,3.162393162393124686e-07,8.505860805860804698e-05,1.974248068974326884e+02,3.146019429248409878e-06,3.759119462055225114e+01,1.029933964599684032e+03
-1.100952380952379721e-05,2.484737484737480808e-06,9.108058608058606923e-05,1.958332580677021042e+02,3.144950058459006154e-06,3.760224081689867859e+01,1.033143043540567987e+03
-1.160732600732599400e-05,6.189255189255184928e-06,4.190109890109888974e-05,1.942058195337712050e+02,3.143850938416947090e-06,3.761280628663574532e+01,1.036192217687224002e+03
-5.131135531135516929e-06,-4.743589743589747062e-06,7.903663003663001117e-05,1.925433033978232800e+02,3.142722725449279992e-06,3.762289005615616588e+01,1.039081713120650875e+03
-5.928205128205114341e-06,4.562881562881558647e-06,3.838827838827837111e-05,1.908465528219981593e+02,3.141566099412071864e-06,3.763249146772497511e+01,1.041811853608540559e+03
-1.494505494505354328e-07,-5.376068376068379834e-06,5.896336996336994828e-05,1.891164416931358403e+02,3.140381763141116592e-06,3.764161017915581198e+01,1.044383060114774480e+03
-1.145787545787531986e-06,1.142979242979242536e-05,2.182783882783881330e-05,1.873538742610311658e+02,3.139170441883436070e-06,3.765024616323893270e+01,1.046795850236245315e+03
-1.145787545787531986e-06,7.905982905982900758e-06,2.483882783882782443e-05,1.855597847502930051e+02,3.137932882710116967e-06,3.765839970692194782e+01,1.049050837567547887e+03
9.614652014652030112e-06,9.080586080586076754e-06,7.776556776556762504e-06,1.837351369459299804e+02,3.136669853910984555e-06,3.766607141024435634e+01,1.051148730994146490e+03
-2.640293040293026498e-06,4.517704517704145916e-08,1.982051282051280701e-05,1.818809237528021754e+02,3.135382144371661650e-06,3.767326218502712720e+01,1.053090333914678695e+03
1.544322344322358221e-06,8.628815628815623927e-06,1.680952380952379589e-05,1.799981667290983296e+02,3.134070562933572536e-06,3.767997325331894842e+01,1.054876543393115071e+03
-2.441025641025626722e-06,-4.562881562881566270e-06,9.710256410256407793e-05,1.780879155940236558e+02,3.132735937737451777e-06,3.768620614560081350e+01,1.056508349241557426e+03
-6.924542124542110682e-06,9.261294261294255852e-06,1.593296703296702898e-04,1.761512477099009857e+02,3.131379115550950825e-06,3.769196269875088490e+01,1.057986833034502297e+03
-5.430036630036616170e-06,4.653235653235649043e-06,1.889377289377289139e-04,1.741892675389100020e+02,3.130000961080939598e-06,3.769724505377170942e+01,1.059313167055466238e+03
1.843223443223457250e-06,1.414041514041513554e-05,2.511648351648351394e-04,1.722031060747108597e+02,3.128602356271117955e-06,3.770205565328225816e+01,1.060488613176914214e+03
1.100952380952382262e-05,3.840048840048836325e-06,2.667216117216116619e-04,1.701939202492200423e+02,3.127184199585545260e-06,3.770639723877715710e+01,1.061514521674489515e+03
1.090989010989012400e-05,6.008547008547004983e-06,2.667216117216116619e-04,1.681628923148255410e+02,3.125747405278746159e-06,3.771027284765591503e+01,1.062392329976597466e+03
1.688791208791210036e-05,8.267399267399262342e-06,2.682271062271062182e-04,1.661112292023512680e+02,3.124292902653027011e-06,3.771368581002504072e+01,1.063123561350450927e+03
2.037509157509158925e-05,2.123321123321119648e-06,2.657179487179487146e-04,1.640401618550999387e+02,3.122821635303663226e-06,3.771663974527620411e+01,1.063709823525725596e+03
2.436043956043957461e-05,2.136874236874236214e-05,2.662197802197802153e-04,1.619509445393225349e+02,3.121334560352632187e-06,3.771913855844356078e+01,1.064152807257034056e+03
3.133479853479854900e-05,8.990231990231985511e-06,2.632087912087911568e-04,1.598448541314892566e+02,3.119832647671557074e-06,3.772118643634397017e+01,1.064454284826476396e+03
4.279267399267400862e-05,1.129426129426125503e-06,2.617032967032967088e-04,1.577231893827480178e+02,3.118316879094568894e-06,3.772278784350349667e+01,1.064616108487561633e+03
4.647912087912089475e-05,4.472527472527469098e-06,2.571868131868132023e-04,1.555872701609837918e+02,3.116788247621760928e-06,3.772394751787420830e+01,1.064640208851857778e+03
4.667838827838829198e-05,3.026862026862023185e-06,2.551794871794871452e-04,1.534384366709082599e+02,3.115247756613958133e-06,3.772467046634509558e+01,1.064528593219755976e+03
5.295531135531136928e-05,1.486324786324785702e-05,2.501611721611721379e-04,1.512780486526292520e+02,3.113696418979499442e-06,3.772496196005154445e+01,1.064283343856796137e+03
5.355311355311356776e-05,8.990231990231985511e-06,2.476520146520146343e-04,1.491074845591696771e+02,3.112135256353754221e-06,3.772482752948732809e+01,1.063906616217028386e+03
5.873406593406595009e-05,1.432112332112331633e-05,2.421318681318680992e-04,1.469281407134241988e+02,3.110565298272104705e-06,3.772427295942390657e+01,1.063400637114938718e+03
5.883369963369965210e-05,1.043589743589743185e-05,2.391208791208790949e-04,1.447414304450602458e+02,3.108987581337099163e-06,3.772330428364154642e+01,1.062767702847500232e+03
5.733919413919415589e-05,-4.924297924297927854e-06,2.351062271062270891e-04,1.425487832078872259e+02,3.107403148380541069e-06,3.772192777947709175e+01,1.062010177267953168e+03
5.514725274725275919e-05,-4.653235653235656666e-06,2.295860805860805811e-04,1.403516436782401797e+02,3.105813047621222835e-06,3.772014996219331096e+01,1.061130489812951737e+03
5.046446886446888012e-05,1.639926739926739460e-05,2.280805860805860518e-04,1.381514708349365605e+02,3.104218331819055416e-06,3.771797757917489236e+01,1.060131133484760312e+03
5.255677655677657480e-05,2.046520146520145988e-05,2.210549450549450417e-04,1.359497370213851468e+02,3.102620057426341719e-06,3.771541760395633247e+01,1.059014662790199736e+03
5.345347985347986575e-05,2.304029304029300016e-06,2.180439560439560102e-04,1.337479269904433181e+02,3.101019283736926079e-06,3.771247723008714559e+01,1.057783691638096570e+03
5.315457875457876651e-05,-4.065934065934102761e-07,2.029890109890109613e-04,1.315475369326346708e+02,3.099417072033972390e-06,3.770916386483968807e+01,1.056440891197006749e+03
5.175970695970697231e-05,1.341758241758241407e-05,2.070036630036629671e-04,1.293500734883554628e+02,3.097814484737111613e-06,3.770548512276540976e+01,1.054988987715016037e+03
4.747545787545788770e-05,1.188156288156287818e-05,1.979706959706959270e-04,1.271570527447134680e+02,3.096212584549714654e-06,3.770144881910517398e+01,1.053430760303459465e+03
4.767472527472528494e-05,1.355311355311318353e-07,1.924505494505494190e-04,1.249699992176612824e+02,3.094612433607021165e-06,3.769706296305939475e+01,1.051769038686409203e+03
4.896996336996338391e-05,1.657997557997557369e-05,1.794029304029303730e-04,1.227904448200972212e+02,3.093015092625872197e-06,3.769233575092414412e+01,1.050006700917827175e+03
5.315457875457876651e-05,-3.162393162393199330e-07,1.603333333333333184e-04,1.206199278166236581e+02,3.091421620056796766e-06,3.768727555909902094e+01,1.048146671068280057e+03
4.259340659340661139e-05,1.865811965811965534e-05,1.487912087912087746e-04,1.184599917656671551e+02,3.089833071239176532e-06,3.768189093697318981e+01,1.046191916883162548e+03
4.877069597069598667e-05,3.749694749694745506e-06,1.071391941391941331e-04,1.163121844496772894e+02,3.088250497560231018e-06,3.767619059969563722e+01,1.044145447414362252e+03
4.578168498168499426e-05,1.097802197802197422e-05,1.066373626373626188e-04,1.141780567941341644e+02,3.086674945618548016e-06,3.767018342083593296e+01,1.042010310627352965e+03
4.159706959706961166e-05,1.477289377289376747e-05,1.171758241758241612e-04,1.120591617761095762e+02,3.085107456392893538e-06,3.766387842494214055e+01,1.039789590985689074e+03
4.478534798534800131e-05,-6.776556776556813583e-07,5.243956043956041852e-05,1.099570533231346587e+02,3.083549064417009030e-06,3.765728478000206536e+01,1.037486407014910355e+03
4.408791208791210082e-05,8.899877899877895962e-06,5.494871794871792893e-05,1.078732852031431406e+02,3.082000796961118775e-06,3.765041178981461201e+01,1.035103908847869434e+03
4.269304029304030662e-05,-2.755799755799759196e-06,2.082417582417580846e-05,1.058094099062667794e+02,3.080463673220847986e-06,3.764326888627758194e+01,1.032645275753508031e+03
3.482197802197803789e-05,1.400488400488396691e-06,5.846153846153844078e-05,1.037669775192738086e+02,3.078938703514255058e-06,3.763586562159889581e+01,1.030113713651117905e+03
3.173333333333335025e-05,1.188156288156287818e-05,-1.831868131868132942e-05,1.017475345934457067e+02,3.077426888487667026e-06,3.762821166043772791e+01,1.027512452612131028e+03
2.067399267399268849e-05,1.106837606837606377e-05,-1.129304029304030571e-05,9.975262300670407001e+01,3.075929218330997140e-06,3.762031677198230284e+01,1.024844744351488544e+03
1.449670329670330981e-05,-4.969474969475005663e-07,-6.599267399267399656e-05,9.778377882080131656e+01,3.074446672003223016e-06,3.761219082197132479e+01,1.022113859710645215e+03
1.369963369963371410e-05,4.472527472527469098e-06,-1.136666666666666739e-04,9.584253113440348670e+01,3.072980216468689450e-06,3.760384376466559075e+01,1.019323086134265168e+03
1.320146520146521593e-05,2.394383394383390836e-06,-1.412673992673992680e-04,9.393040093289559422e+01,3.071530805944877943e-06,3.759528563477689289e+01,1.016475725142668011e+03
1.300219780219781530e-05,1.350793650793650362e-05,-1.036300366300366323e-04,9.204889993575129381e+01,3.070099381162298527e-06,3.758652653936096044e+01,1.013575089802083880e+03
1.140805860805862217e-05,7.905982905982900758e-06,-1.437765567765567716e-04,9.019952944231232550e+01,3.068686868637119713e-06,3.757757664968129774e+01,1.010624502194772163e+03
2.027545787545789063e-05,1.942612942612938856e-06,-1.628461538461538534e-04,8.838377917683149576e+01,3.067294179957166293e-06,3.756844619305083199e+01,1.007627290891054940e+03
2.137142857142858559e-05,6.098901098901094532e-06,-1.538131868131868132e-04,8.660312613363451817e+01,3.065922211081879228e-06,3.755914544465829863e+01,1.004586788425313102e+03
2.017582417582419201e-05,2.484737484737480808e-06,-1.492967032967032796e-04,8.485903342326584209e+01,3.064571841656838137e-06,3.754968471938624930e+01,1.001506328777976023e+03
1.808351648351649732e-05,1.007448107448107026e-05,-1.513040293040293096e-04,8.315294912048270248e+01,3.063243934343416038e-06,3.754007436362748962e+01,9.983892448655392400e+02
